###################################################################
## OUTPUT of StarlightChains_v04.for    [Cid@UFSC - 01/Apr/2007] ##
###################################################################

## Some input info
KUG0210-078._66_30.txt                   [arq_obs]
Base.CB07.vall.4m                        [arq_base]
Masks.EmLines.NEW.gm                     [arq_masks]
StCv04.C11.config                        [arq_config]
   66                                    [N_base]
    0                                    [N_YAV_components = # of components with extra extinction!]
    0                                    [i_FitPowerLaw (1/0 = Yes/No)]
-9.99                                    [alpha_PowerLaw]
CCM                                      [red_law_option]
 1.458241                                [q_norm = A(l_norm)/A(V)]

## (Re)Sampling Parameters
 3741.00                                 [l_ini (A)]
 7218.00                                 [l_fin (A)]
    1.00                                 [dl    (A)]     (OBS: dl_cushion =    50.00 A)

## Normalization info
 4020.00                                 [l_norm (A) - for base]
 4010.00                                 [llow_norm (A) - window for f_obs]
 4060.00                                 [lupp_norm (A) - window for f_obs]
8.613190E-18                             [fobs_norm (in input units)]

## S/N
 3691.00                                 [llow_SN (A) - window for S/N]
 7268.00                                 [lupp_SN (A) - window for S/N]
   1.527                                 [S/N in S/N window]
   2.505                                 [S/N in norm. window]
   0.007                                 [S/N_err in S/N window]
   0.011                                 [S/N_err in norm. window]
  1.0000                                 [fscale_chi2]

## etc...
    -2008047                             [idum_orig]
  2342                                   [NOl_eff]
  2315                                   [Nl_eff]
    27    NSIGMA                         [Ntot_cliped & clip_method]
   699790                                [Nglobal_steps]
   7                                     [N_chains]
   7                                     [NEX0s_base = N_base in EX0s-fits]
 0   0   1       27   2.0   1.908E+03    [Clip-Bug, RC-Crash & Burn-In warning-flags, n_censored_weights, wei_nsig_threshold & wei_limit]
    14     14.263     13.757      0.507  [idt_all, wdt_TotTime, wdt_UsrTime & wdt_SysTime (sec)]

## Synthesis Results - Best model ##

 2.37252E-05                             [chi2/Nl_eff]
    63.87996                             [adev (%)]

   101.81696                             [sum-of-x (%)]
 2.28922E-18                             [Flux_tot (units of input spectrum!)]
 5.97791E-15                             [Mini_tot (???)]
 3.72734E-15                             [Mcor_tot (???)]

 348.57                                  [v0_min  (km/s)]
   0.00                                  [vd_min  (km/s)]
-1.0000                                  [AV_min  (mag)]
 0.0000                                  [YAV_min (mag)]

# j     x_j(%)      Mini_j(%)     Mcor_j(%)     age_j(yr)     Z_j      (L/M)_j    YAV?  Mstars   component_j        a/Fe...       SSP_chi2r SSP_adev(%)   SSP_AV   SSP_x(%)
  1      0.0000     0.0000E+00    0.0000E+00    1.000000E+06  0.00400  1.094E-02    0   1.0000   age020_m42            0.0000     2.7605E-05    70.1146   1.1419    91.5973
  2      0.0000     0.0000E+00    0.0000E+00    3.160000E+06  0.00400  4.007E-02    0   0.9999   age045_m42            0.0000     2.5789E-05    68.0387   0.3969    99.1550
  3      0.0000     0.0000E+00    0.0000E+00    5.010000E+06  0.00400  2.539E-02    0   0.9488   age055_m42            0.0000     2.6785E-05    69.4854   0.7376    95.7687
  4      0.0000     0.0000E+00    0.0000E+00    6.610000E+06  0.00400  2.620E-02    0   0.9220   age061_m42            0.0000     2.5943E-05    68.5390   0.3355    98.9788
  5      0.0000     0.0000E+00    0.0000E+00    1.000000E+07  0.00400  1.322E-02    0   0.8862   age070_m42            0.0000     2.7115E-05    70.6392   0.1094    98.6168
  6      0.0000     0.0000E+00    0.0000E+00    1.445000E+07  0.00400  7.883E-03    0   0.8571   age078_m42            0.0000     2.7467E-05    71.1801   0.4395    96.0631
  7      0.0000     0.0000E+00    0.0000E+00    2.512000E+07  0.00400  5.251E-03    0   0.8174   age090_m42            0.0000     2.7165E-05    70.9147  -0.0071    98.8485
  8      0.0000     0.0000E+00    0.0000E+00    4.000000E+07  0.00400  3.649E-03    0   0.7851   age104_m42            0.0000     2.6698E-05    70.2410  -0.2494   100.3149
  9      0.0000     0.0000E+00    0.0000E+00    5.500000E+07  0.00400  3.098E-03    0   0.7629   age110_m42            0.0000     2.5911E-05    68.7347  -0.1232   101.5770
 10      0.0000     0.0000E+00    0.0000E+00    1.015200E+08  0.00400  2.228E-03    0   0.7207   age116_m42            0.0000     2.5391E-05    67.6830  -0.1212   102.5912
 11     67.6255     2.3271E+01    2.4811E+01    2.861200E+08  0.00400  1.093E-03    0   0.6648   age125_m42            0.0000     2.5103E-05    67.8212  -0.6754   105.3297
 12      0.0000     0.0000E+00    0.0000E+00    5.088000E+08  0.00400  6.597E-04    0   0.6365   age130_m42            0.0000     2.4072E-05    65.9561  -0.7113   107.9634
 13      0.0000     0.0000E+00    0.0000E+00    1.434000E+09  0.00400  2.132E-04    0   0.5798   age139_m42            0.0000     2.7843E-05    60.2621  -1.0000    82.1656
 14      0.0000     0.0000E+00    0.0000E+00    4.250000E+09  0.00400  5.895E-05    0   0.5377   age158_m42            0.0000     3.4246E-05    59.1237  -1.0000    64.1559
 15      0.0000     0.0000E+00    0.0000E+00    7.500000E+09  0.00400  3.510E-05    0   0.5212   age171_m42            0.0000     3.7153E-05    58.8085  -1.0000    58.2495
 16      0.0000     0.0000E+00    0.0000E+00    1.300000E+10  0.00400  2.005E-05    0   0.5034   age193_m42            0.0000     3.9893E-05    58.7723  -1.0000    53.4382
 17      0.0000     0.0000E+00    0.0000E+00    1.800000E+10  0.00400  1.525E-05    0   0.4967   age213_m42            0.0000     4.0408E-05    58.9906  -1.0000    52.5242
 18      0.0000     0.0000E+00    0.0000E+00    1.000000E+06  0.00800  1.238E-02    0   1.0000   age020_m52            0.0000     2.7603E-05    70.1502   1.1382    91.7754
 19      0.0000     0.0000E+00    0.0000E+00    3.160000E+06  0.00800  3.074E-02    0   0.9966   age045_m52            0.0000     2.7517E-05    70.1401   1.0550    92.7368
 20      0.0000     0.0000E+00    0.0000E+00    5.010000E+06  0.00800  2.668E-02    0   0.9443   age055_m52            0.0000     2.7077E-05    69.9811   0.8221    94.7042
 21      0.0000     0.0000E+00    0.0000E+00    6.610000E+06  0.00800  2.136E-02    0   0.9177   age061_m52            0.0000     2.6582E-05    70.5922  -0.3951   100.4733
 22      0.0000     0.0000E+00    0.0000E+00    1.000000E+07  0.00800  1.215E-02    0   0.8827   age070_m52            0.0000     2.7661E-05    71.7631   0.3082    97.5901
 23      0.0000     0.0000E+00    0.0000E+00    1.445000E+07  0.00800  8.717E-03    0   0.8552   age078_m52            0.0000     2.7349E-05    71.0111   0.4005    97.3973
 24      0.0000     0.0000E+00    0.0000E+00    2.512000E+07  0.00800  5.592E-03    0   0.8162   age090_m52            0.0000     2.7106E-05    70.9336   0.0516    99.9673
 25      0.0000     0.0000E+00    0.0000E+00    4.000000E+07  0.00800  3.896E-03    0   0.7841   age104_m52            0.0000     2.6404E-05    70.0483  -0.0502   101.6600
 26      0.0000     0.0000E+00    0.0000E+00    1.015200E+08  0.00800  2.148E-03    0   0.7226   age116_m52            0.0000     2.5518E-05    68.5422  -0.1343   102.7714
 27      0.0000     0.0000E+00    0.0000E+00    2.861200E+08  0.00800  9.925E-04    0   0.6683   age125_m52            0.0000     2.3974E-05    66.0042  -0.6408   108.8404
 28      0.0000     0.0000E+00    0.0000E+00    9.047900E+08  0.00800  3.141E-04    0   0.6138   age135_m52            0.0000     2.4181E-05    59.7415  -1.0000    95.0882
 29      0.0000     0.0000E+00    0.0000E+00    1.434000E+09  0.00800  1.719E-04    0   0.5853   age139_m52            0.0000     3.1895E-05    59.5515  -1.0000    71.3427
 30      0.0000     0.0000E+00    0.0000E+00    2.500000E+09  0.00800  7.872E-05    0   0.5600   age150_m52            0.0000     3.6253E-05    58.4057  -1.0000    60.8428
 31      0.0000     0.0000E+00    0.0000E+00    4.250000E+09  0.00800  4.336E-05    0   0.5426   age158_m52            0.0000     3.6411E-05    58.5421  -1.0000    59.9772
 32      0.0000     0.0000E+00    0.0000E+00    6.250000E+09  0.00800  3.159E-05    0   0.5319   age166_m52            0.0000     3.9691E-05    58.1493  -1.0000    54.3179
 33      0.0000     0.0000E+00    0.0000E+00    1.300000E+10  0.00800  1.361E-05    0   0.5073   age193_m52            0.0000     4.8097E-05    58.8515  -1.0000    42.3431
 34      0.0000     0.0000E+00    0.0000E+00    1.800000E+10  0.00800  9.886E-06    0   0.4990   age213_m52            0.0000     4.9824E-05    58.6700  -1.0000    39.9442
 35      0.0000     0.0000E+00    0.0000E+00    1.000000E+06  0.02000  1.544E-02    0   1.0000   age020_m62            0.0000     2.7659E-05    70.2892   1.1318    92.0582
 36      0.0000     0.0000E+00    0.0000E+00    3.160000E+06  0.02000  3.762E-02    0   0.9858   age045_m62            0.0000     2.7696E-05    70.4176   1.0742    92.7396
 37      0.0000     0.0000E+00    0.0000E+00    5.010000E+06  0.02000  3.296E-02    0   0.9342   age055_m62            0.0000     2.6382E-05    69.0704   0.6851    97.4788
 38      0.0000     0.0000E+00    0.0000E+00    8.710000E+06  0.02000  1.154E-02    0   0.8861   age067_m62            0.0000     3.0446E-05    76.8438  -0.1454    95.9902
 39      0.0000     0.0000E+00    0.0000E+00    1.445000E+07  0.02000  7.663E-03    0   0.8472   age078_m62            0.0000     2.8087E-05    73.3111  -0.0112    98.7552
 40      0.0000     0.0000E+00    0.0000E+00    2.512000E+07  0.02000  4.532E-03    0   0.8099   age090_m62            0.0000     2.8193E-05    73.6125  -0.0092    98.0796
 41      0.0000     0.0000E+00    0.0000E+00    5.500000E+07  0.02000  2.733E-03    0   0.7595   age110_m62            0.0000     2.6553E-05    70.5525  -0.0561   100.6646
 42      0.0000     0.0000E+00    0.0000E+00    1.609000E+08  0.02000  1.369E-03    0   0.6985   age120_m62            0.0000     2.5041E-05    67.6933  -0.2612   105.7223
 43      0.0000     0.0000E+00    0.0000E+00    2.861200E+08  0.02000  9.013E-04    0   0.6714   age125_m62            0.0000     2.3973E-05    65.2637  -0.5441   110.4859
 44      0.0000     0.0000E+00    0.0000E+00    5.088000E+08  0.02000  5.028E-04    0   0.6449   age130_m62            0.0000     2.1977E-05    61.8396  -0.9799   116.9475
 45      0.0000     0.0000E+00    0.0000E+00    9.047900E+08  0.02000  2.428E-04    0   0.6179   age135_m62            0.0000     2.4355E-05    58.3217  -1.0000    92.3065
 46      0.0000     0.0000E+00    0.0000E+00    1.434000E+09  0.02000  1.263E-04    0   0.5908   age139_m62            0.0000     3.0212E-05    57.8645  -1.0000    74.1618
 47      0.0000     0.0000E+00    0.0000E+00    2.500000E+09  0.02000  5.985E-05    0   0.5673   age150_m62            0.0000     3.5988E-05    57.4502  -1.0000    61.4605
 48      0.0000     0.0000E+00    0.0000E+00    4.250000E+09  0.02000  3.271E-05    0   0.5468   age158_m62            0.0000     4.1311E-05    57.0046  -1.0000    52.2316
 49      0.0000     0.0000E+00    0.0000E+00    1.000000E+10  0.02000  1.360E-05    0   0.5167   age181_m62            0.0000     4.7403E-05    57.2221  -1.0000    43.5373
 50      0.0000     0.0000E+00    0.0000E+00    1.800000E+10  0.02000  7.124E-06    0   0.5013   age213_m62            0.0000     5.0888E-05    57.5898  -1.0000    38.9059
 51      0.0000     0.0000E+00    0.0000E+00    1.000000E+06  0.05000  2.592E-02    0   0.9998   age020_m72            0.0000     2.7819E-05    70.5834   1.1204    92.1254
 52      0.0000     0.0000E+00    0.0000E+00    3.160000E+06  0.05000  4.845E-02    0   0.9577   age045_m72            0.0000     2.7180E-05    69.9163   0.9463    94.3794
 53      0.0000     0.0000E+00    0.0000E+00    5.010000E+06  0.05000  3.072E-02    0   0.9147   age055_m72            0.0000     2.7839E-05    72.8347   0.5555    95.9458
 54      0.0000     0.0000E+00    0.0000E+00    6.610000E+06  0.05000  1.455E-02    0   0.8877   age061_m72            0.0000     3.1186E-05    80.8861   0.0002    95.0229
 55      0.0000     0.0000E+00    0.0000E+00    1.000000E+07  0.05000  9.074E-03    0   0.8524   age070_m72            0.0000     2.7685E-05    73.5897   0.7692    95.4492
 56      0.0000     0.0000E+00    0.0000E+00    2.512000E+07  0.05000  4.250E-03    0   0.7902   age090_m72            0.0000     2.7202E-05    72.3861   0.4457    97.6275
 57      0.0000     0.0000E+00    0.0000E+00    4.000000E+07  0.05000  3.087E-03    0   0.7618   age104_m72            0.0000     2.7058E-05    72.2715   0.2175    99.2129
 58      0.0000     0.0000E+00    0.0000E+00    1.015200E+08  0.05000  1.700E-03    0   0.7096   age116_m72            0.0000     2.5620E-05    68.7846  -0.0986   104.2124
 59      0.0000     0.0000E+00    0.0000E+00    2.861200E+08  0.05000  7.384E-04    0   0.6633   age125_m72            0.0000     2.2792E-05    63.4701  -0.6974   113.8344
 60      0.0000     0.0000E+00    0.0000E+00    5.088000E+08  0.05000  3.819E-04    0   0.6372   age130_m72            0.0000     2.1771E-05    59.6416  -1.0000   107.8685
 61     34.1914     7.6729E+01    7.5189E+01    9.047900E+08  0.05000  1.676E-04    0   0.6110   age135_m72            0.0000     2.8554E-05    56.1629  -1.0000    78.0360
 62      0.0000     0.0000E+00    0.0000E+00    1.434000E+09  0.05000  8.837E-05    0   0.5874   age139_m72            0.0000     3.5968E-05    56.9837  -1.0000    62.2620
 63      0.0000     0.0000E+00    0.0000E+00    2.500000E+09  0.05000  4.233E-05    0   0.5598   age150_m72            0.0000     4.1200E-05    56.6757  -1.0000    52.7624
 64      0.0000     0.0000E+00    0.0000E+00    6.250000E+09  0.05000  1.435E-05    0   0.5249   age166_m72            0.0000     4.9016E-05    57.5538  -1.0000    41.3570
 65      0.0000     0.0000E+00    0.0000E+00    1.300000E+10  0.05000  6.513E-06    0   0.5036   age193_m72            0.0000     5.3744E-05    58.3372  -1.0000    36.1700
 66      0.0000     0.0000E+00    0.0000E+00    1.800000E+10  0.05000  4.527E-06    0   0.4945   age213_m72            0.0000     5.6395E-05    58.9168  -1.0000    33.2169


## Synthesis Results - Average & Chains ##

# j      x_j: min, <> & last-chain-values for 1 ...  7 chains
  1      0.0000      0.7719      0.4051      1.0504      0.0800      0.0023      0.0137      0.0000      0.0000
  2      0.0000      0.5097      0.0000      0.2194      0.0290      0.0205      0.0114      0.0360      0.0000
  3      0.0000      0.6610      0.0000      0.0000      0.0051      0.0178      0.0206      0.0094      0.0000
  4      0.0000      0.7153      0.2031      0.0000      0.0090      0.0017      0.0112      0.0000      0.0000
  5      0.0000      0.5579      0.0417      0.0000      0.0044      0.0135      0.0187      0.0095      0.0000
  6      0.0000      0.5971      0.4078      0.0000      0.0000      0.0053      0.0053      0.0000      0.0043
  7      0.0000      0.5843      0.0168      0.5339      0.0000      0.0018      0.0079      0.0102      0.0001
  8      0.0000      0.6375      0.0710      0.5418      0.0831      0.0216      0.0404      0.0072      0.0000
  9      0.0000      0.8760      0.0000      0.0000      0.0105      0.0020      0.0136      0.0221      0.0000
 10      0.0000      0.7128      0.0356      0.2172      0.0112      0.0009      0.0213      0.0111      0.0000
 11     67.6255      0.9310      0.0000      1.0519      0.0000      0.0145      0.0178      0.0127      0.0133
 12      0.0000      0.5287      0.4536      0.0000      0.0000      0.0092      0.0083      0.0000      0.0027
 13      0.0000      0.5905      0.2218      0.0385      0.0000      0.0151      0.0049      0.0002      0.0000
 14      0.0000      1.1258      0.0000      0.1944      0.0000      0.0100      0.0143      0.0062      0.0000
 15      0.0000      1.3427      0.0158      0.0000      0.0011      0.0266      0.0000      0.0030      0.0048
 16      0.0000      0.5861      0.0453      0.8617      0.0054      0.0000      0.0000      0.0176      0.0000
 17      0.0000      1.1606      0.0000      0.2167      0.0090      0.0000      0.0054      0.0325      0.0000
 18      0.0000      0.5844      0.4857      0.3316      0.0065      0.0163      0.0066      0.0035      0.0000
 19      0.0000      0.7614      0.1751      0.0150      0.0078      0.0244      0.0208      0.0057      0.0000
 20      0.0000      0.8816      0.0000      0.3851      0.0052      0.0298      0.0000      0.0398      0.0000
 21      0.0000      0.8947      0.0454      0.0000      0.0030      0.0004      0.0135      0.0000      0.0000
 22      0.0000      0.9831      0.2219      0.0000      0.0187      0.0086      0.0000      0.0136      0.0055
 23      0.0000      0.6025      0.1266      0.0269      0.0046      0.0075      0.0104      0.0118      0.0044
 24      0.0000      0.9269      0.0000      0.3886      0.0104      0.0208      0.0118      0.0057      0.0000
 25      0.0000      0.9082      0.6659      0.9108      0.0000      0.0025      0.0000      0.0000      0.0035
 26      0.0000      0.7982      0.0089      0.4646      0.0142      0.0352      0.0029      0.0206      0.0000
 27      0.0000      0.6291      0.1143      0.5089      0.0038      0.0157      0.0020      0.0229      0.0000
 28      0.0000      0.9291      0.1655      0.0000      0.0050      0.0000      0.0071      0.0083      0.0000
 29      0.0000      0.9649      0.0634      0.3883      0.0096      0.0000      0.0036      0.0000      0.0002
 30      0.0000      0.8800      0.0288      0.0000      0.0047      0.0266      0.0012      0.0149      0.0000
 31      0.0000      0.8531      0.0000      0.0000      0.0001      0.0000      0.0123      0.0010      0.0000
 32      0.0000      0.8058      0.0000      1.2593      0.0000      0.0054      0.0051      0.0033      0.0000
 33      0.0000      0.4822      0.0000      0.6664      0.0000      0.0013      0.0066      0.0100      0.0000
 34      0.0000      0.8238      0.0000      0.0000      0.0175      0.0066      0.0031      0.0240      0.0000
 35      0.0000      0.8194      0.5083      1.4909      0.0000      0.0067      0.0033      0.0156      0.0000
 36      0.0000      1.0258      0.1284      0.2703      0.0038      0.0022      0.0000      0.0053      0.0000
 37      0.0000      0.7907      0.0000      1.7194      0.0341      0.0172      0.0024      0.0000      0.0000
 38      0.0000      0.6722      0.0027      1.0489      0.0045      0.0021      0.0000      0.0065      0.0000
 39      0.0000      0.6621      0.1206      0.4753      0.0136      0.0150      0.0524      0.0413      0.0004
 40      0.0000      0.6805      0.2861      0.0000      0.0083      0.0137      0.0063      0.0000      0.0034
 41      0.0000      0.5940      0.0000      0.0000      0.0022      0.0275      0.0003      0.0157      0.0000
 42      0.0000      0.7327      0.0357      1.4841      0.0042      0.0254      0.0000      0.0269      0.0000
 43      0.0000      0.5954      0.0000      0.8024      0.0098      0.0065      0.0153      0.0047      0.0000
 44      0.0000      0.6577      0.4160      0.6592      0.0135      0.0220      0.0000      0.0559      0.0000
 45      0.0000      0.9524      0.1290      1.4871      0.0164      0.0048      0.0010      0.0000      0.0000
 46      0.0000      1.0272      0.0000      1.1027      0.0098      0.0097      0.0149      0.0189      0.0000
 47      0.0000      0.6879      0.0032      0.2670      0.0056      0.0000      0.0042      0.0047      0.0000
 48      0.0000      0.7246      0.0481      0.8582      0.0000      0.0000      0.0034      0.0008      0.0000
 49      0.0000      1.0953      0.0000      0.0000      0.0060      0.0041      0.0028      0.0111      0.0000
 50      0.0000      0.7127      0.0451      0.0000      0.0089      0.0064      0.0030      0.0028      0.0000
 51      0.0000      0.6390      0.0437      0.3445      0.0072      0.0038      0.0001      0.0179      0.0003
 52      0.0000     20.4722     31.9781     25.0147     41.0725     41.1621     41.2201     40.8765     41.4692
 53      0.0000      0.7812      0.0194      0.7695      0.0302      0.0139      0.0048      0.0247      0.0000
 54      0.0000      0.8196      0.0118      0.6811      0.0071      0.0057      0.0003      0.0123      0.0055
 55      0.0000      1.0308      0.0588      1.7303      0.0009      0.0168      0.0044      0.0053      0.0023
 56      0.0000      0.8125      0.0000      0.0752      0.0060      0.0000      0.0014      0.0061      0.0000
 57      0.0000      0.7528      0.6097      1.0905      0.0067      0.0226      0.0252      0.0223      0.0000
 58      0.0000      0.6307      0.1674      0.0000      0.0123      0.0075      0.0111      0.0169      0.0000
 59      0.0000      0.5286      0.0272      0.3592      0.0170      0.0062      0.0105      0.0166      0.0040
 60      0.0000      0.8517      0.2835      1.2447      0.0923      0.0162      0.1604      0.0422      0.0021
 61     34.1914     31.4586     62.6172     46.9074     58.5008     58.3087     57.7945     58.0861     59.6691
 62      0.0000      1.4963      0.5605      1.5829      2.0084      2.0638      2.7875      2.4901      1.4115
 63      0.0000      0.8263      0.0491      0.3529      0.2996      0.3135      0.1844      0.2605      0.0000
 64      0.0000      0.6144      0.2185      0.1443      0.0026      0.0064      0.0042      0.0000      0.0000
 65      0.0000      0.8117      0.0000      0.1210      0.0000      0.0074      0.0000      0.0030      0.0000
 66      0.0000      0.7677      0.0000      0.0000      0.0016      0.0135      0.0088      0.0000      0.0001

# j      m_j: min, <> & last-chain-values for 1 ...  7 chains
  1  0.0000E+00  1.1560E-02  1.4778E-02  3.0746E-02  3.1201E-03  9.0490E-05  5.3260E-04  0.0000E+00  0.0000E+00
  2  0.0000E+00  2.0839E-03  0.0000E+00  1.7531E-03  3.0880E-04  2.1669E-04  1.2074E-04  3.7839E-04  0.0000E+00
  3  0.0000E+00  4.0476E-03  0.0000E+00  0.0000E+00  8.2017E-05  2.8243E-04  3.2674E-04  1.4780E-04  0.0000E+00
  4  0.0000E+00  4.1243E-03  2.8531E-03  0.0000E+00  1.3566E-04  2.4808E-05  1.6757E-04  0.0000E+00  0.0000E+00
  5  0.0000E+00  6.1278E-03  1.1158E-03  0.0000E+00  1.2505E-04  3.8407E-04  5.3252E-04  2.6821E-04  0.0000E+00
  6  0.0000E+00  1.0637E-02  1.7698E-02  0.0000E+00  0.0000E+00  2.4370E-04  2.4582E-04  0.0000E+00  2.0707E-04
  7  0.0000E+00  1.4904E-02  1.0459E-03  2.6612E-02  0.0000E+00  1.1637E-04  5.2366E-04  6.7147E-04  5.0228E-06
  8  0.0000E+00  2.2475E-02  6.0942E-03  3.7328E-02  7.6299E-03  1.9738E-03  3.6948E-03  6.4922E-04  0.0000E+00
  9  0.0000E+00  3.5346E-02  0.0000E+00  0.0000E+00  1.1018E-03  2.0408E-04  1.4207E-03  2.2960E-03  0.0000E+00
 10  0.0000E+00  3.7779E-02  4.5964E-03  2.2502E-02  1.5493E-03  1.2467E-04  2.9322E-03  1.5109E-03  0.0000E+00
 11  2.4811E+01  9.2785E-02  0.0000E+00  2.0488E-01  0.0000E+00  3.7418E-03  4.6041E-03  3.2623E-03  3.5552E-03
 12  0.0000E+00  8.3579E-02  1.7467E-01  0.0000E+00  0.0000E+00  3.7835E-03  3.3952E-03  0.0000E+00  1.1261E-03
 13  0.0000E+00  2.6312E-01  2.4071E-01  3.3528E-02  0.0000E+00  1.7460E-02  5.7097E-03  1.9499E-04  0.0000E+00
 14  0.0000E+00  1.6826E+00  0.0000E+00  5.6774E-01  0.0000E+00  3.8716E-02  5.5386E-02  2.3758E-02  0.0000E+00
 15  0.0000E+00  3.2668E+00  9.3925E-02  0.0000E+00  6.9020E-03  1.6775E-01  0.0000E+00  1.8764E-02  3.1468E-02
 16  0.0000E+00  2.4111E+00  4.5441E-01  6.9284E+00  5.8289E-02  0.0000E+00  0.0000E+00  1.8628E-01  0.0000E+00
 17  0.0000E+00  6.1938E+00  0.0000E+00  2.2606E+00  1.2552E-01  0.0000E+00  7.4570E-02  4.4678E-01  0.0000E+00
 18  0.0000E+00  7.7347E-03  1.5659E-02  8.5765E-03  2.2243E-04  5.5919E-04  2.2664E-04  1.2036E-04  5.5366E-07
 19  0.0000E+00  4.0446E-03  2.2659E-03  1.5589E-04  1.0857E-04  3.3563E-04  2.8649E-04  7.8326E-05  1.4080E-07
 20  0.0000E+00  5.1126E-03  0.0000E+00  4.3644E-03  7.9116E-05  4.4706E-04  0.0000E+00  5.9404E-04  0.0000E+00
 21  0.0000E+00  6.2980E-03  7.7825E-04  0.0000E+00  5.4767E-05  7.7702E-06  2.4680E-04  0.0000E+00  0.0000E+00
 22  0.0000E+00  1.1702E-02  6.4329E-03  0.0000E+00  5.8092E-04  2.6522E-04  0.0000E+00  4.1516E-04  1.7624E-04
 23  0.0000E+00  9.6851E-03  4.9567E-03  8.4604E-04  1.9248E-04  3.1049E-04  4.3363E-04  4.8963E-04  1.8777E-04
 24  0.0000E+00  2.2167E-02  0.0000E+00  1.8162E-02  6.4656E-04  1.2893E-03  7.3071E-04  3.4874E-04  0.0000E+00
 25  0.0000E+00  2.9948E-02  5.3485E-02  5.8697E-02  0.0000E+00  2.1597E-04  0.0000E+00  0.0000E+00  3.0639E-04
 26  0.0000E+00  4.3999E-02  1.1930E-03  5.0055E-02  2.0435E-03  5.0333E-03  4.1317E-04  2.9256E-03  0.0000E+00
 27  0.0000E+00  6.9404E-02  3.0717E-02  1.0972E-01  1.0930E-03  4.4771E-03  5.8050E-04  6.5132E-03  0.0000E+00
 28  0.0000E+00  2.9750E-01  1.2908E-01  0.0000E+00  4.1330E-03  0.0000E+00  5.8978E-03  6.8306E-03  0.0000E+00
 29  0.0000E+00  5.3830E-01  8.6126E-02  4.2342E-01  1.4019E-02  0.0000E+00  5.2080E-03  0.0000E+00  3.6280E-04
 30  0.0000E+00  1.0257E+00  8.1790E-02  0.0000E+00  1.4341E-02  8.0270E-02  3.6184E-03  4.4742E-02  0.0000E+00
 31  0.0000E+00  1.7492E+00  0.0000E+00  0.0000E+00  4.7664E-04  0.0000E+00  6.5351E-02  5.5172E-03  0.0000E+00
 32  0.0000E+00  2.2232E+00  0.0000E+00  6.7899E+00  0.0000E+00  3.8557E-02  3.6384E-02  2.3519E-02  0.0000E+00
 33  0.0000E+00  2.9449E+00  0.0000E+00  7.9544E+00  0.0000E+00  2.0540E-02  1.0448E-01  1.5667E-01  0.0000E+00
 34  0.0000E+00  6.8130E+00  0.0000E+00  0.0000E+00  3.7665E-01  1.4087E-01  6.6493E-02  5.1096E-01  0.0000E+00
 35  0.0000E+00  8.6958E-03  1.3139E-02  3.0922E-02  0.0000E+00  1.8338E-04  8.9912E-05  4.2619E-04  0.0000E+00
 36  0.0000E+00  4.4044E-03  1.3430E-03  2.2680E-03  4.2240E-05  2.4442E-05  0.0000E+00  5.9089E-05  0.0000E+00
 37  0.0000E+00  3.6723E-03  0.0000E+00  1.5606E-02  4.1264E-04  2.0732E-04  2.8871E-05  0.0000E+00  0.0000E+00
 38  0.0000E+00  8.4571E-03  8.2305E-05  2.5790E-02  1.4636E-04  6.7052E-05  0.0000E+00  2.0915E-04  0.0000E+00
 39  0.0000E+00  1.1994E-02  5.3204E-03  1.6829E-02  6.4006E-04  7.0266E-04  2.4601E-03  1.9249E-03  1.7556E-05
 40  0.0000E+00  1.9927E-02  2.0404E-02  0.0000E+00  6.2994E-04  1.0362E-03  4.7779E-04  0.0000E+00  2.6596E-04
 41  0.0000E+00  2.7049E-02  0.0000E+00  0.0000E+00  2.5815E-04  3.2410E-03  2.9580E-05  1.8416E-03  0.0000E+00
 42  0.0000E+00  6.1252E-02  7.2643E-03  2.4248E-01  9.1105E-04  5.5108E-03  0.0000E+00  5.7797E-03  0.0000E+00
 43  0.0000E+00  7.2675E-02  0.0000E+00  1.9140E-01  3.1219E-03  2.0465E-03  4.8533E-03  1.4624E-03  0.0000E+00
 44  0.0000E+00  1.3823E-01  2.1297E-01  2.7073E-01  7.3980E-03  1.1988E-02  0.0000E+00  3.0211E-02  0.0000E+00
 45  0.0000E+00  3.9712E-01  1.3100E-01  1.2119E+00  1.7797E-02  5.1635E-03  1.1221E-03  0.0000E+00  0.0000E+00
 46  0.0000E+00  7.8729E-01  0.0000E+00  1.6518E+00  1.9544E-02  1.9222E-02  2.9680E-02  3.7287E-02  0.0000E+00
 47  0.0000E+00  1.0684E+00  1.2094E-02  8.1033E-01  2.2700E-02  0.0000E+00  1.6734E-02  1.8931E-02  0.0000E+00
 48  0.0000E+00  1.9846E+00  3.2121E-01  4.5942E+00  0.0000E+00  0.0000E+00  2.4166E-02  5.8064E-03  0.0000E+00
 49  0.0000E+00  6.8181E+00  0.0000E+00  0.0000E+00  9.8093E-02  6.6665E-02  4.5038E-02  1.7800E-01  0.0000E+00
 50  0.0000E+00  8.2172E+00  1.2672E+00  0.0000E+00  2.6609E-01  1.9218E-01  9.0097E-02  8.1949E-02  0.0000E+00
 51  0.0000E+00  4.0389E-03  6.7256E-04  4.2554E-03  1.1847E-04  6.2955E-05  1.7600E-06  2.9178E-04  4.2588E-06
 52  0.0000E+00  6.6306E-02  2.5227E-01  1.5834E-01  3.4648E-01  3.4544E-01  3.4609E-01  3.4066E-01  3.5978E-01
 53  0.0000E+00  3.8111E-03  2.3089E-04  7.3369E-03  3.8322E-04  1.7526E-04  6.1082E-05  3.0969E-04  0.0000E+00
 54  0.0000E+00  8.1937E-03  2.8747E-04  1.3307E-02  1.8452E-04  1.4826E-04  7.3033E-06  3.1618E-04  1.4744E-04
 55  0.0000E+00  1.5866E-02  2.2058E-03  5.2049E-02  3.7434E-05  6.7025E-04  1.7605E-04  2.1047E-04  9.4183E-05
 56  0.0000E+00  2.4754E-02  0.0000E+00  4.4763E-03  4.7674E-04  0.0000E+00  1.1127E-04  4.7892E-04  0.0000E+00
 57  0.0000E+00  3.0440E-02  6.0046E-02  8.6179E-02  7.0741E-04  2.3704E-03  2.6381E-03  2.3189E-03  0.0000E+00
 58  0.0000E+00  4.3137E-02  2.7882E-02  0.0000E+00  2.1993E-03  1.3352E-03  1.9624E-03  2.9790E-03  0.0000E+00
 59  0.0000E+00  7.7804E-02  9.7593E-03  1.0333E-01  6.5135E-03  2.3559E-03  4.0027E-03  6.2952E-03  1.5863E-03
 60  0.0000E+00  2.3285E-01  1.8878E-01  6.6503E-01  6.5698E-02  1.1498E-02  1.1369E-01  2.9679E-02  1.5321E-03
 61  7.5189E+01  1.8791E+01  9.1105E+01  5.4760E+01  9.1017E+01  9.0248E+01  8.9495E+01  8.9279E+01  9.5475E+01
 62  0.0000E+00  1.6297E+00  1.4870E+00  3.3693E+00  5.6973E+00  5.8241E+00  7.8701E+00  6.9783E+00  4.1179E+00
 63  0.0000E+00  1.7905E+00  2.5900E-01  1.4946E+00  1.6911E+00  1.7604E+00  1.0358E+00  1.4525E+00  0.0000E+00
 64  0.0000E+00  3.6824E+00  3.1902E+00  1.6897E+00  4.0267E-02  9.9587E-02  6.5040E-02  0.0000E+00  0.0000E+00
 65  0.0000E+00  1.0284E+01  0.0000E+00  2.9952E+00  0.0000E+00  2.4200E-01  0.0000E+00  9.8493E-02  0.0000E+00
 66  0.0000E+00  1.3741E+01  0.0000E+00  0.0000E+00  7.4578E-02  6.2547E-01  4.0628E-01  0.0000E+00  6.3535E-03

# AV, chi2 & Mass for <> & i_chain = 1 ...  7 solutions
AV      -1.0000     -0.9811     -1.0000     -1.0000     -1.0000     -1.0000     -1.0000     -1.0000     -1.0000
chi2 2.3725E-05  2.6618E-05  2.4375E-05  2.4582E-05  2.4306E-05  2.4315E-05  2.4320E-05  2.4316E-05  2.4283E-05
Mass 3.7273E-15  1.4075E-14  5.6336E-15  7.0212E-15  5.2684E-15  5.2958E-15  5.2933E-15  5.3329E-15  5.1227E-15
 348.57                                  [v0_min (km/s) before EX0s...]
   0.00                                  [vd_min (km/s) before EX0s...]


## Synthetic spectrum (Best Model) ##l_obs f_obs f_syn wei
 3478    [Nl_obs]
 3741.00   -0.50203   0.46820    0.000
 3742.00   -0.62550   0.53556    0.000
 3743.00   -0.78002   0.61667    0.000
 3744.00   -0.65258   0.68677    0.000
 3745.00   -0.36086   0.72322    0.000
 3746.00   -0.04591   0.71413    0.000
 3747.00    0.28082   0.67930    0.025
 3748.00   -0.26459   0.65684    0.000
 3749.00   -1.19351   0.63212    0.000
 3750.00   -1.00924   0.58994    0.000
 3751.00   -0.40472   0.54986    0.000
 3752.00   -0.35360   0.49002    0.000
 3753.00   -0.47986   0.41091    0.000
 3754.00   -0.08306   0.37815    0.000
 3755.00    0.45389   0.42252    0.024
 3756.00    0.63574   0.49912    0.024
 3757.00    0.73964   0.56505    0.024
 3758.00    0.33780   0.62958    0.024
 3759.00   -0.15233   0.68795    0.000
 3760.00   -0.10532   0.72516    0.000
 3761.00    0.01304   0.72269    0.032
 3762.00    0.16843   0.68999    0.027
 3763.00    0.32729   0.68042    0.023
 3764.00    0.27759   0.69872    0.022
 3765.00    0.21585   0.71725    0.022
 3766.00   -0.26719   0.74390    0.000
 3767.00   -0.75485   0.76199    0.000
 3768.00   -0.58870   0.74730    0.000
 3769.00   -0.43593   0.72449    0.000
 3770.00   -0.60814   0.68330    0.000
 3771.00   -0.75775   0.61770    0.000
 3772.00   -0.61104   0.56694    0.000
 3773.00   -0.47306   0.52772    0.000
 3774.00   -0.41181   0.47255    0.000
 3775.00   -0.40281   0.43878    0.000
 3776.00   -0.73270   0.47292    0.000
 3777.00   -0.97081   0.55106    0.000
 3778.00   -0.74441   0.62140    0.000
 3779.00   -0.57036   0.66093    0.000
 3780.00   -0.61065   0.68526    0.000
 3781.00   -0.69388   0.72691    0.000
 3782.00   -0.92278   0.77616    0.000
 3783.00   -0.95454   0.81898    0.000
 3784.00   -0.42248   0.85507    0.000
 3785.00   -0.09692   0.87566    0.000
 3786.00   -0.27590   0.88384    0.000
 3787.00   -0.54813   0.89310    0.000
 3788.00   -1.01686   0.90995    0.000
 3789.00   -1.13089   0.90910    0.000
 3790.00   -0.59517   0.86555    0.000
 3791.00   -0.19094   0.81502    0.000
 3792.00    0.00279   0.78522    0.022
 3793.00    0.09963   0.76824    0.022
 3794.00    0.06038   0.75432    0.022
 3795.00    0.00049   0.74137    0.000
 3796.00   -0.08490   0.72655    0.000
 3797.00   -0.01672   0.69116    0.000
 3798.00    0.21875   0.62338    0.021
 3799.00    0.21360   0.55360    0.021
 3800.00   -0.02278   0.50384    0.000
 3801.00   -0.05591   0.45369    0.000
 3802.00    0.08320   0.41006    0.022
 3803.00    0.15251   0.41164    0.022
 3804.00    0.16974   0.47544    0.021
 3805.00    0.17807   0.56201    0.021
 3806.00    0.18058   0.63053    0.021
 3807.00    0.07531   0.69647    0.021
 3808.00   -0.09180   0.75527    0.000
 3809.00   -0.12201   0.78356    0.000
 3810.00   -0.08380   0.78902    0.000
 3811.00   -0.00985   0.79635    0.000
 3812.00    0.07955   0.82118    0.020
 3813.00    0.16898   0.86275    0.020
 3814.00    0.25843   0.90718    0.020
 3815.00    0.12219   0.92888    0.020
 3816.00   -0.08499   0.91368    0.000
 3817.00   -0.23743   0.87608    0.000
 3818.00   -0.37551   0.84574    0.000
 3819.00   -0.05277   0.83832    0.000
 3820.00    0.36870   0.85009    0.020
 3821.00    0.25827   0.87337    0.020
 3822.00    0.05757   0.88882    0.020
 3823.00   -0.04750   0.87358    0.000
 3824.00   -0.14030   0.84209    0.000
 3825.00    0.10361   0.83272    0.020
 3826.00    0.37775   0.85033    0.020
 3827.00    0.46155   0.86370    0.021
 3828.00    0.53513   0.83936    0.023
 3829.00    0.52918   0.79245    0.022
 3830.00    0.52015   0.76076    0.022
 3831.00    0.38518   0.73559    0.022
 3832.00    0.26321   0.70335    0.022
 3833.00    0.42991   0.67374    0.022
 3834.00    0.54668   0.65087    0.022
 3835.00    0.04263   0.61935    0.022
 3836.00   -0.39302   0.55707    0.000
 3837.00   -0.25045   0.48172    0.000
 3838.00   -0.14003   0.42163    0.000
 3839.00   -0.23195   0.37852    0.000
 3840.00   -0.29087   0.36877    0.000
 3841.00   -0.18696   0.39987    0.000
 3842.00   -0.10559   0.45378    0.000
 3843.00   -0.11440   0.51395    0.000
 3844.00   -0.15401   0.56502    0.000
 3845.00   -0.29599   0.61221    0.000
 3846.00   -0.42100   0.66765    0.000
 3847.00   -0.49836   0.72603    0.000
 3848.00   -0.52225   0.77675    0.000
 3849.00   -0.41772   0.80733    0.000
 3850.00   -0.26857   0.82432    0.000
 3851.00   -0.02685   0.84514    0.000
 3852.00    0.12872   0.87108    0.000
 3853.00    0.12890   0.88391    0.000
 3854.00    0.24220   0.88403    0.000
 3855.00    0.53392   0.89506    0.000
 3856.00    0.47108   0.91117    0.000
 3857.00   -0.08258   0.92416    0.000
 3858.00   -0.20064   0.93098    0.000
 3859.00    0.21208   0.92544    0.000
 3860.00    0.78879   0.91239    0.000
 3861.00    1.54168   0.90601    0.000
 3862.00    1.49115   0.90705    0.000
 3863.00    0.67938   0.89564    0.000
 3864.00    0.32978   0.87820    0.000
 3865.00    0.36629   0.89066    0.000
 3866.00    0.53109   0.92819    0.000
 3867.00    0.79025   0.95044    0.000
 3868.00    0.82535   0.95392    0.000
 3869.00    0.71573   0.94890    0.000
 3870.00    0.37527   0.93600    0.000
 3871.00   -0.09563   0.92964    0.000
 3872.00   -0.01615   0.93722    0.000
 3873.00    0.33408   0.94495    0.000
 3874.00    0.45429   0.93838    0.000
 3875.00    0.47670   0.91424    0.000
 3876.00    0.34132   0.88066    0.000
 3877.00    0.14846   0.85342    0.000
 3878.00    0.22179   0.84776    0.000
 3879.00    0.37719   0.86725    0.000
 3880.00   -0.02525   0.88771    0.000
 3881.00   -0.57088   0.87459    0.000
 3882.00   -0.54592   0.82654    0.000
 3883.00   -0.40167   0.78373    0.000
 3884.00   -0.10225   0.77684    0.000
 3885.00    0.22277   0.77768    0.020
 3886.00   -0.07706   0.74621    0.000
 3887.00   -0.45428   0.70006    0.000
 3888.00   -0.54416   0.67065    0.000
 3889.00   -0.60944   0.63292    0.000
 3890.00   -0.14153   0.56509    0.000
 3891.00    0.35295   0.49359    0.019
 3892.00    0.39626   0.43287    0.019
 3893.00    0.42940   0.39071    0.019
 3894.00    0.28348   0.39800    0.019
 3895.00    0.15914   0.46143    0.019
 3896.00    0.47631   0.54254    0.019
 3897.00    0.77181   0.60398    0.018
 3898.00    0.81107   0.64380    0.018
 3899.00    0.79337   0.67273    0.018
 3900.00    0.31168   0.69804    0.018
 3901.00   -0.06195   0.73525    0.000
 3902.00    0.22440   0.77122    0.017
 3903.00    0.44836   0.78350    0.017
 3904.00    0.37208   0.79448    0.017
 3905.00    0.32055   0.82425    0.017
 3906.00    0.36598   0.85250    0.016
 3907.00    0.44059   0.86272    0.016
 3908.00    0.61027   0.86928    0.017
 3909.00    0.63962   0.86916    0.017
 3910.00    0.28200   0.85387    0.018
 3911.00   -0.00038   0.85243    0.000
 3912.00   -0.10503   0.88170    0.000
 3913.00    0.05973   0.91954    0.019
 3914.00    0.77436   0.94489    0.019
 3915.00    1.11117   0.95970    0.019
 3916.00    0.77695   0.96605    0.020
 3917.00    0.40650   0.95649    0.020
 3918.00   -0.02026   0.93731    0.000
 3919.00   -0.14573   0.93064    0.000
 3920.00    0.13990   0.93098    0.020
 3921.00    0.22015   0.92478    0.020
 3922.00    0.05371   0.91958    0.020
 3923.00   -0.13034   0.91095    0.000
 3924.00   -0.33304   0.89594    0.000
 3925.00   -0.21016   0.88619    0.000
 3926.00    0.21688   0.89523    0.020
 3927.00    0.53065   0.90988    0.020
 3928.00    0.75113   0.91347    0.020
 3929.00    0.48834   0.91004    0.020
 3930.00   -0.12479   0.89162    0.000
 3931.00   -0.30185   0.86230    0.000
 3932.00   -0.20139   0.83847    0.000
 3933.00   -0.01885   0.80759    0.000
 3934.00    0.20938   0.76875    0.019
 3935.00    0.21256   0.73515    0.019
 3936.00    0.10680   0.69020    0.019
 3937.00    0.21155   0.63370    0.019
 3938.00    0.40429   0.60091    0.019
 3939.00    0.45463   0.61103    0.019
 3940.00    0.45402   0.65726    0.019
 3941.00    0.34490   0.72023    0.019
 3942.00    0.20298   0.77260    0.019
 3943.00    0.21000   0.80788    0.019
 3944.00    0.25442   0.83267    0.019
 3945.00    0.39550   0.85426    0.019
 3946.00    0.55630   0.86482    0.019
 3947.00    0.39886   0.85978    0.019
 3948.00    0.19045   0.85397    0.019
 3949.00    0.05932   0.86688    0.019
 3950.00   -0.06259   0.89373    0.000
 3951.00    0.19417   0.90770    0.020
 3952.00    0.48176   0.90085    0.020
 3953.00    0.58351   0.89226    0.020
 3954.00    0.67671   0.89265    0.019
 3955.00    0.87857   0.89583    0.020
 3956.00    1.07412   0.88963    0.020
 3957.00    0.86773   0.87743    0.020
 3958.00    0.67990   0.87949    0.020
 3959.00    0.84356   0.89183    0.020
 3960.00    0.95519   0.87446    0.000
 3961.00    0.48038   0.83328    0.000
 3962.00    0.11220   0.81130    0.000
 3963.00    0.58215   0.81479    0.000
 3964.00    0.92932   0.81191    0.000
 3965.00    0.54787   0.77121    0.000
 3966.00    0.21264   0.70849    0.000
 3967.00    0.09445   0.66394    0.000
 3968.00    0.13902   0.63016    0.000
 3969.00    0.80728   0.58627    0.000
 3970.00    1.21418   0.52365    0.000
 3971.00    0.78568   0.43979    0.000
 3972.00    0.49517   0.35519    0.000
 3973.00    0.57839   0.29668    0.000
 3974.00    0.69205   0.27481    0.000
 3975.00    0.87636   0.29723    0.000
 3976.00    1.02220   0.35739    0.000
 3977.00    1.09080   0.42844    0.000
 3978.00    1.02167   0.49762    0.000
 3979.00    0.71165   0.56531    0.000
 3980.00    0.40173   0.62752    0.000
 3981.00    0.09194   0.67603    0.019
 3982.00    0.13957   0.71805    0.019
 3983.00    0.66787   0.76024    0.019
 3984.00    0.77724   0.79923    0.019
 3985.00    0.39050   0.82754    0.019
 3986.00    0.14101   0.83419    0.019
 3987.00    0.03486   0.83239    0.019
 3988.00    0.06211   0.84516    0.019
 3989.00    0.21223   0.86901    0.019
 3990.00    0.33154   0.88452    0.018
 3991.00    0.42584   0.89233    0.018
 3992.00    0.56276   0.90770    0.018
 3993.00    0.73012   0.92444    0.018
 3994.00    0.70506   0.92518    0.018
 3995.00    0.55935   0.92438    0.019
 3996.00    0.43118   0.94157    0.018
 3997.00    0.31261   0.96455    0.018
 3998.00    0.37160   0.97445    0.018
 3999.00    0.51517   0.96847    0.018
 4000.00    0.59228   0.95445    0.018
 4001.00    0.64207   0.93216    0.019
 4002.00    0.80827   0.91406    0.019
 4003.00    1.01535   0.92378    0.019
 4004.00    0.92168   0.95749    0.019
 4005.00    0.73890   0.98340    0.019
 4006.00    0.77671   0.98763    0.019
 4007.00    0.86871   0.98513    0.019
 4008.00    0.60324   0.97682    0.019
 4009.00    0.26670   0.94681    0.019
 4010.00    0.27559   0.91434    0.019
 4011.00    0.33815   0.91811    0.019
 4012.00    0.62036   0.95273    0.019
 4013.00    0.92783   0.97934    0.019
 4014.00    1.10505   0.98382    0.019
 4015.00    1.27221   0.98531    0.019
 4016.00    0.98748   0.99457    0.019
 4017.00    0.68373   0.99429    0.019
 4018.00    0.97326   0.98720    0.019
 4019.00    1.26529   0.98873    0.019
 4020.00    1.42971   0.99734    0.019
 4021.00    1.57208   0.99415    0.019
 4022.00    1.32552   0.98293    0.019
 4023.00    1.09168   0.98985    0.019
 4024.00    0.99471   1.01065    0.019
 4025.00    0.90319   1.01202    0.019
 4026.00    0.85303   0.99469    0.019
 4027.00    0.82735   0.98419    0.019
 4028.00    0.94289   0.97541    0.019
 4029.00    1.04131   0.95609    0.018
 4030.00    1.06124   0.95003    0.018
 4031.00    1.09375   0.97276    0.018
 4032.00    1.17339   0.99955    0.018
 4033.00    1.21696   1.00127    0.018
 4034.00    1.14743   0.97389    0.018
 4035.00    1.07610   0.93382    0.018
 4036.00    1.00000   0.91144    0.018
 4037.00    0.78976   0.91351    0.017
 4038.00    0.27321   0.92515    0.018
 4039.00    0.04253   0.94154    0.018
 4040.00    0.37694   0.96303    0.018
 4041.00    0.86624   0.98873    0.018
 4042.00    1.62234   1.01356    0.018
 4043.00    1.83575   1.01808    0.018
 4044.00    1.23047   1.00223    0.018
 4045.00    0.82923   0.98982    0.018
 4046.00    0.69844   0.98785    0.018
 4047.00    0.85278   0.99173    0.018
 4048.00    1.34000   0.97889    0.018
 4049.00    1.46588   0.93309    0.018
 4050.00    1.21976   0.89090    0.018
 4051.00    1.11227   0.89762    0.018
 4052.00    1.13067   0.94565    0.018
 4053.00    1.02055   0.98096    0.018
 4054.00    0.80757   0.98343    0.018
 4055.00    0.59182   0.98080    0.018
 4056.00    0.37413   0.97877    0.018
 4057.00    0.40868   0.96755    0.018
 4058.00    0.59905   0.95167    0.018
 4059.00    1.03597   0.93606    0.018
 4060.00    1.60593   0.93204    0.018
 4061.00    1.61959   0.93787    0.019
 4062.00    1.37254   0.93902    0.018
 4063.00    1.07488   0.93994    0.018
 4064.00    0.75678   0.95640    0.018
 4065.00    0.68846   0.97690    0.018
 4066.00    0.70626   0.96954    0.018
 4067.00    0.73734   0.93196    0.018
 4068.00    0.77228   0.89236    0.018
 4069.00    0.50308   0.88942    0.018
 4070.00    0.16084   0.91928    0.018
 4071.00    0.63949   0.92734    0.018
 4072.00    1.27720   0.91948    0.018
 4073.00    1.20519   0.94179    0.018
 4074.00    1.02624   0.96829    0.018
 4075.00    1.13169   0.94703    0.018
 4076.00    1.26860   0.90662    0.018
 4077.00    1.06605   0.90245    0.018
 4078.00    0.83865   0.92830    0.018
 4079.00    0.84368   0.93577    0.018
 4080.00    0.85761   0.90723    0.018
 4081.00    0.94159   0.86638    0.018
 4082.00    1.02736   0.84192    0.018
 4083.00    1.16647   0.85048    0.018
 4084.00    1.29421   0.88236    0.018
 4085.00    1.23466   0.91605    0.018
 4086.00    1.16807   0.93440    0.018
 4087.00    1.02907   0.92408    0.018
 4088.00    0.90298   0.89873    0.018
 4089.00    0.87164   0.87632    0.018
 4090.00    0.84863   0.86572    0.017
 4091.00    0.87238   0.87462    0.018
 4092.00    0.93978   0.89675    0.000
 4093.00    1.20256   0.90651    0.000
 4094.00    1.42743   0.89279    0.000
 4095.00    1.51313   0.87063    0.000
 4096.00    1.56338   0.84790    0.000
 4097.00    1.50462   0.82346    0.000
 4098.00    1.39367   0.80771    0.000
 4099.00    1.14632   0.79068    0.000
 4100.00    0.96467   0.75139    0.000
 4101.00    0.93054   0.70463    0.000
 4102.00    0.89974   0.66606    0.000
 4103.00    0.87542   0.62660    0.000
 4104.00    0.84703   0.57596    0.000
 4105.00    0.81176   0.50778    0.000
 4106.00    0.83664   0.43945    0.000
 4107.00    0.95096   0.42664    0.000
 4108.00    0.92684   0.48322    0.000
 4109.00    0.72185   0.55918    0.000
 4110.00    0.70738   0.62149    0.000
 4111.00    0.91222   0.66612    0.000
 4112.00    1.00274   0.69560    0.000
 4113.00    0.97723   0.71829    0.017
 4114.00    0.97090   0.73666    0.017
 4115.00    0.98176   0.75243    0.017
 4116.00    1.03543   0.77602    0.017
 4117.00    1.12287   0.80965    0.017
 4118.00    0.91925   0.83435    0.017
 4119.00    0.51365   0.84822    0.017
 4120.00    0.52904   0.86694    0.025
 4121.00    0.80061   0.88321    0.097
 4122.00    0.92735   0.88001   -1.000
 4123.00    0.97715   0.86314   -1.000
 4124.00    0.89503   0.85134   -1.000
 4125.00    0.75208   0.85741   -1.000
 4126.00    0.66697   0.87005   -1.000
 4127.00    0.60483   0.87267   -1.000
 4128.00    0.70584   0.87304   -1.000
 4129.00    0.86206   0.88940   -1.000
 4130.00    0.60256   0.90830   -1.000
 4131.00    0.22478   0.90784   -1.000
 4132.00    0.16753   0.88622    0.042
 4133.00    0.18555   0.86923    0.019
 4134.00    0.15019   0.87007    0.017
 4135.00    0.10477   0.86916    0.017
 4136.00    0.38708   0.85832    0.018
 4137.00    0.71726   0.84787    0.018
 4138.00    0.84381   0.85130    0.018
 4139.00    0.94873   0.87134    0.018
 4140.00    0.95344   0.90163    0.018
 4141.00    0.95121   0.92255    0.018
 4142.00    0.96661   0.92090    0.018
 4143.00    0.98262   0.92472    0.018
 4144.00    1.19401   0.94192    0.018
 4145.00    1.41174   0.94770    0.018
 4146.00    1.82583   0.93152    0.018
 4147.00    2.19617   0.88574    0.019
 4148.00    1.88998   0.84027    0.018
 4149.00    1.54195   0.84377    0.018
 4150.00    0.78152   0.88623    0.017
 4151.00    0.17675   0.91697    0.017
 4152.00    0.67718   0.92094    0.017
 4153.00    1.03335   0.91461    0.018
 4154.00    0.60209   0.90398    0.017
 4155.00    0.32221   0.89629    0.017
 4156.00    0.70403   0.90152    0.017
 4157.00    1.00186   0.90268    0.017
 4158.00    0.99758   0.89231    0.017
 4159.00    0.93772   0.87971    0.017
 4160.00    0.71015   0.87222    0.017
 4161.00    0.67438   0.87184    0.016
 4162.00    1.13119   0.87872    0.016
 4163.00    1.56510   0.89560    0.017
 4164.00    1.94843   0.91290    0.017
 4165.00    2.07492   0.91705    0.017
 4166.00    1.70942   0.91254    0.017
 4167.00    1.43266   0.91335    0.017
 4168.00    1.30424   0.91835    0.017
 4169.00    1.14807   0.91780    0.016
 4170.00    0.95125   0.91234    0.016
 4171.00    0.73514   0.90453    0.016
 4172.00    0.49419   0.89755    0.016
 4173.00    0.33700   0.90015    0.016
 4174.00    0.27488   0.91591    0.016
 4175.00    0.33392   0.91577    0.016
 4176.00    0.51424   0.87750    0.016
 4177.00    0.73355   0.82980    0.016
 4178.00    0.98730   0.81393    0.016
 4179.00    1.06645   0.82983    0.017
 4180.00    1.00982   0.85568    0.016
 4181.00    0.83964   0.87249    0.016
 4182.00    0.59182   0.85871    0.016
 4183.00    0.59856   0.83825    0.016
 4184.00    0.75788   0.85387    0.016
 4185.00    0.84854   0.88680    0.016
 4186.00    0.90328   0.88990    0.016
 4187.00    1.13353   0.87409    0.016
 4188.00    1.44337   0.87322    0.016
 4189.00    1.52227   0.88054    0.017
 4190.00    1.51104   0.89245    0.017
 4191.00    1.19657   0.88808    0.016
 4192.00    0.78139   0.86243    0.016
 4193.00    0.53746   0.85927    0.016
 4194.00    0.34127   0.88137    0.016
 4195.00    0.49528   0.89627    0.016
 4196.00    0.72964   0.89350    0.017
 4197.00    0.88179   0.89711    0.017
 4198.00    1.01883   0.91566    0.017
 4199.00    1.14127   0.91772    0.017
 4200.00    1.26165   0.89378    0.017
 4201.00    1.18564   0.87067    0.017
 4202.00    1.08961   0.85745    0.017
 4203.00    1.15626   0.83783    0.017
 4204.00    1.23351   0.83615    0.017
 4205.00    1.09663   0.85403    0.016
 4206.00    0.95352   0.85276    0.016
 4207.00    1.03830   0.84215    0.016
 4208.00    1.11776   0.84752    0.017
 4209.00    1.04074   0.85405    0.017
 4210.00    0.98418   0.85636    0.017
 4211.00    1.22533   0.86930    0.017
 4212.00    1.44744   0.88550    0.017
 4213.00    1.48953   0.89202    0.017
 4214.00    1.53658   0.88530    0.017
 4215.00    1.61772   0.88023    0.017
 4216.00    1.69787   0.89529    0.017
 4217.00    1.77273   0.90944    0.017
 4218.00    1.72788   0.90694    0.017
 4219.00    1.17172   0.88641    0.017
 4220.00    0.76045   0.84869    0.017
 4221.00    0.85964   0.83560    0.017
 4222.00    0.96505   0.86588    0.017
 4223.00    1.08886   0.89801    0.017
 4224.00    1.15667   0.91382    0.016
 4225.00    1.08320   0.91274    0.017
 4226.00    1.12002   0.91048    0.017
 4227.00    1.39651   0.89965    0.017
 4228.00    1.42777   0.87796    0.016
 4229.00    0.99658   0.84169    0.016
 4230.00    0.73591   0.79242    0.016
 4231.00    0.75596   0.74821    0.016
 4232.00    0.76396   0.74831    0.016
 4233.00    0.75457   0.80658    0.016
 4234.00    0.78587   0.87006    0.016
 4235.00    0.86883   0.89876    0.016
 4236.00    0.98392   0.90312    0.016
 4237.00    1.13497   0.87976    0.016
 4238.00    1.12928   0.84151    0.015
 4239.00    0.96894   0.83593    0.015
 4240.00    0.86812   0.84865    0.015
 4241.00    0.81909   0.84215    0.015
 4242.00    0.92877   0.84439    0.015
 4243.00    1.16011   0.85275    0.016
 4244.00    1.23734   0.85159    0.016
 4245.00    1.21071   0.86342    0.016
 4246.00    1.14118   0.88133    0.016
 4247.00    1.04632   0.88088    0.017
 4248.00    1.28055   0.88152    0.017
 4249.00    1.68423   0.89940    0.017
 4250.00    2.10136   0.89995    0.017
 4251.00    2.52449   0.86722    0.017
 4252.00    2.20085   0.83692    0.017
 4253.00    1.59088   0.83565    0.016
 4254.00    1.31737   0.83661    0.016
 4255.00    1.15352   0.82183    0.016
 4256.00    0.98113   0.82558    0.016
 4257.00    0.80643   0.85334    0.015
 4258.00    0.83806   0.86408    0.016
 4259.00    0.91594   0.84724    0.016
 4260.00    1.07713   0.83933    0.016
 4261.00    1.25321   0.86119    0.016
 4262.00    1.30647   0.88183    0.016
 4263.00    1.34293   0.86659    0.016
 4264.00    1.23319   0.83591    0.016
 4265.00    1.10917   0.81353    0.016
 4266.00    1.06330   0.80923    0.016
 4267.00    1.02220   0.83814    0.016
 4268.00    0.98636   0.87722    0.016
 4269.00    0.95008   0.89502    0.015
 4270.00    0.80007   0.90174    0.015
 4271.00    0.65509   0.90420    0.015
 4272.00    0.64316   0.88609    0.015
 4273.00    0.63508   0.86057    0.015
 4274.00    0.68000   0.84431    0.015
 4275.00    0.73832   0.82208    0.015
 4276.00    0.91848   0.78406    0.015
 4277.00    1.07869   0.77061    0.015
 4278.00    1.10603   0.79281    0.016
 4279.00    1.08952   0.80222    0.016
 4280.00    0.84605   0.80762    0.016
 4281.00    0.65945   0.83933    0.016
 4282.00    0.71025   0.87281   -2.000
 4283.00    0.74238   0.87994   -2.000
 4284.00    0.71009   0.86464   -2.000
 4285.00    0.77626   0.84797   -2.000
 4286.00    1.12858   0.84040   -2.000
 4287.00    1.48872   0.83245   -2.000
 4288.00    1.86823   0.83166   -2.000
 4289.00    2.07615   0.83888   -2.000
 4290.00    1.91727   0.83295   -2.000
 4291.00    1.85316   0.82361   -2.000
 4292.00    1.96502   0.81838   -2.000
 4293.00    1.94297   0.80247   -2.000
 4294.00    1.70375   0.76535   -2.000
 4295.00    1.44639   0.73557   -2.000
 4296.00    1.16322   0.75758   -2.000
 4297.00    1.04497   0.80769   -2.000
 4298.00    1.13313   0.82918    0.016
 4299.00    1.10919   0.81218    0.016
 4300.00    0.96159   0.79602    0.016
 4301.00    0.97313   0.79516    0.016
 4302.00    1.13952   0.79295    0.016
 4303.00    1.20910   0.77299    0.016
 4304.00    1.19564   0.72511    0.016
 4305.00    1.18702   0.69537    0.016
 4306.00    1.18208   0.70821    0.016
 4307.00    1.11072   0.71500    0.016
 4308.00    0.99526   0.72248    0.016
 4309.00    1.02737   0.74873    0.016
 4310.00    1.14531   0.75899    0.016
 4311.00    0.91376   0.75127    0.016
 4312.00    0.50510   0.73312    0.016
 4313.00    0.50342   0.70916    0.016
 4314.00    0.68032   0.70955    0.015
 4315.00    0.79906   0.73469    0.016
 4316.00    0.89589   0.76119    0.016
 4317.00    1.03096   0.77252    0.016
 4318.00    1.17826   0.76317    0.016
 4319.00    1.17397   0.75183    0.016
 4320.00    1.12917   0.77317    0.016
 4321.00    1.35793   0.82390    0.016
 4322.00    1.64655   0.86064    0.016
 4323.00    1.66134   0.86267    0.017
 4324.00    1.62849   0.84811    0.017
 4325.00    1.52326   0.82439    0.016
 4326.00    1.40846   0.80284    0.016
 4327.00    1.17317   0.79981    0.016
 4328.00    0.92663   0.78854    0.016
 4329.00    1.29852   0.74824    0.016
 4330.00    1.70578   0.69348    0.000
 4331.00    1.40033   0.67335    0.000
 4332.00    1.08207   0.71311    0.000
 4333.00    1.19935   0.76355    0.000
 4334.00    1.31818   0.77477    0.000
 4335.00    1.47418   0.75149    0.000
 4336.00    1.59619   0.72961    0.000
 4337.00    1.27578   0.72115    0.000
 4338.00    1.00196   0.71041    0.000
 4339.00    1.13515   0.69759    0.000
 4340.00    1.25458   0.68430    0.000
 4341.00    1.28509   0.64152    0.000
 4342.00    1.32236   0.56216    0.000
 4343.00    1.39378   0.49075    0.000
 4344.00    1.42316   0.43893    0.000
 4345.00    1.28096   0.39091    0.000
 4346.00    1.19510   0.38897    0.000
 4347.00    1.29983   0.45218    0.000
 4348.00    1.36436   0.52005    0.000
 4349.00    1.31421   0.56459    0.000
 4350.00    1.36844   0.60895    0.000
 4351.00    1.67720   0.64867    0.017
 4352.00    1.83136   0.67423    0.017
 4353.00    1.66033   0.70426    0.017
 4354.00    1.45790   0.73184    0.017
 4355.00    1.19806   0.72566    0.017
 4356.00    1.04739   0.68532    0.020
 4357.00    1.07117   0.66174    0.055
 4358.00    1.13268   0.69263   -1.000
 4359.00    1.24710   0.74021   -1.000
 4360.00    1.29314   0.76849   -1.000
 4361.00    1.25481   0.79251   -1.000
 4362.00    1.20066   0.80413   -1.000
 4363.00    1.12928   0.78960   -1.000
 4364.00    1.13107   0.77338    0.060
 4365.00    1.20304   0.78723    0.020
 4366.00    1.33253   0.81432    0.016
 4367.00    1.51067   0.82929    0.016
 4368.00    1.64556   0.83300    0.016
 4369.00    1.74823   0.84130    0.016
 4370.00    1.76081   0.85214    0.016
 4371.00    1.71443   0.84639    0.016
 4372.00    1.53497   0.82024    0.016
 4373.00    1.27928   0.79618    0.016
 4374.00    1.25227   0.79513    0.016
 4375.00    1.33934   0.80312    0.016
 4376.00    1.24542   0.81242    0.016
 4377.00    1.07340   0.81928    0.016
 4378.00    1.09963   0.80688    0.016
 4379.00    1.19921   0.77147    0.016
 4380.00    1.36383   0.74627    0.016
 4381.00    1.54886   0.76563    0.016
 4382.00    1.32678   0.81255    0.016
 4383.00    0.99820   0.84194    0.016
 4384.00    1.14027   0.84250    0.016
 4385.00    1.38287   0.83350    0.016
 4386.00    1.09144   0.82278    0.015
 4387.00    0.70971   0.78866    0.015
 4388.00    0.81473   0.72424    0.015
 4389.00    0.98194   0.67714    0.015
 4390.00    1.23724   0.69134    0.015
 4391.00    1.50041   0.74201    0.015
 4392.00    1.26250   0.77510    0.015
 4393.00    0.99791   0.78141    0.015
 4394.00    1.16001   0.78263    0.016
 4395.00    1.32972   0.78209    0.016
 4396.00    1.43903   0.78437    0.016
 4397.00    1.53731   0.79804    0.016
 4398.00    1.39306   0.80332    0.016
 4399.00    1.21873   0.78509    0.015
 4400.00    0.67280   0.76677    0.015
 4401.00    0.23286   0.78206    0.015
 4402.00    0.68455   0.81740    0.015
 4403.00    1.09773   0.82763    0.016
 4404.00    1.26946   0.80582    0.016
 4405.00    1.36558   0.77199    0.016
 4406.00    1.08976   0.76482    0.016
 4407.00    0.90273   0.79321    0.015
 4408.00    1.07011   0.80631    0.015
 4409.00    1.17694   0.77250    0.015
 4410.00    1.08297   0.74733    0.015
 4411.00    1.04217   0.76830    0.015
 4412.00    1.15031   0.78391    0.015
 4413.00    1.31984   0.77069    0.016
 4414.00    1.63654   0.77314    0.016
 4415.00    1.80508   0.79913    0.016
 4416.00    1.66694   0.81888    0.015
 4417.00    1.48940   0.83369    0.015
 4418.00    1.24090   0.83660    0.015
 4419.00    1.10979   0.80348    0.015
 4420.00    1.16345   0.75935    0.015
 4421.00    1.12106   0.74752    0.015
 4422.00    0.94592   0.75883    0.015
 4423.00    0.90099   0.77363    0.015
 4424.00    1.01446   0.80034    0.015
 4425.00    1.20584   0.82584    0.015
 4426.00    1.48076   0.82268    0.015
 4427.00    1.49786   0.79452    0.015
 4428.00    1.27109   0.78240    0.015
 4429.00    1.13130   0.79772    0.015
 4430.00    1.06405   0.80932    0.015
 4431.00    1.28291   0.80445    0.015
 4432.00    1.71183   0.79320    0.015
 4433.00    1.71787   0.79587    0.016
 4434.00    1.45125   0.80339    0.016
 4435.00    1.28055   0.79325    0.016
 4436.00    1.16396   0.78705    0.016
 4437.00    1.34675   0.79777    0.016
 4438.00    1.67653   0.79698    0.016
 4439.00    1.64769   0.77216    0.016
 4440.00    1.46670   0.74786    0.016
 4441.00    1.53777   0.75343    0.016
 4442.00    1.70045   0.78661    0.015
 4443.00    1.94301   0.82079    0.016
 4444.00    2.21012   0.83796    0.016
 4445.00    2.12154   0.83056    0.016
 4446.00    1.94190   0.79907    0.016
 4447.00    2.04027   0.76263    0.016
 4448.00    2.19659   0.74129    0.016
 4449.00    1.97806   0.74923    0.016
 4450.00    1.69794   0.78397    0.016
 4451.00    1.66292   0.81172    0.015
 4452.00    1.65812   0.81281    0.015
 4453.00    1.51138   0.80906    0.015
 4454.00    1.35256   0.80558    0.015
 4455.00    1.33367   0.79137    0.015
 4456.00    1.32168   0.78702    0.015
 4457.00    1.33032   0.79834    0.015
 4458.00    1.33845   0.79794    0.015
 4459.00    1.29416   0.76959    0.015
 4460.00    1.27017   0.73633    0.015
 4461.00    1.65720   0.73663    0.000
 4462.00    1.99315   0.75222    0.000
 4463.00    1.72870   0.75565    0.000
 4464.00    1.49383   0.75179    0.000
 4465.00    1.49888   0.75073    0.000
 4466.00    1.51878   0.74300    0.000
 4467.00    1.62901   0.73464    0.000
 4468.00    1.67601   0.74978    0.000
 4469.00    1.41968   0.77196    0.000
 4470.00    1.23867   0.77928    0.000
 4471.00    1.35180   0.77762    0.000
 4472.00    1.46568   0.77093    0.000
 4473.00    1.58199   0.75738    0.000
 4474.00    1.60925   0.74298    0.000
 4475.00    1.39149   0.73807    0.000
 4476.00    1.24124   0.74801    0.000
 4477.00    1.25008   0.77049    0.000
 4478.00    1.25066   0.79590    0.000
 4479.00    1.23445   0.81384    0.000
 4480.00    1.19818   0.81825    0.000
 4481.00    1.12637   0.81779    0.000
 4482.00    1.13552   0.82326    0.015
 4483.00    1.27025   0.82389    0.015
 4484.00    1.32332   0.80538    0.015
 4485.00    1.26516   0.76367    0.015
 4486.00    1.19189   0.71832    0.015
 4487.00    1.10049   0.71076    0.015
 4488.00    1.15771   0.74542    0.016
 4489.00    1.37208   0.78624    0.016
 4490.00    1.43176   0.81139    0.016
 4491.00    1.34720   0.82039    0.016
 4492.00    1.30339   0.81533    0.016
 4493.00    1.29309   0.79134    0.015
 4494.00    1.22183   0.76487    0.015
 4495.00    1.10647   0.75385    0.015
 4496.00    1.18506   0.76342    0.015
 4497.00    1.38686   0.78298    0.015
 4498.00    1.50694   0.78934    0.015
 4499.00    1.58164   0.77471    0.015
 4500.00    1.61063   0.76012    0.015
 4501.00    1.61754   0.76093    0.015
 4502.00    1.50182   0.77074    0.015
 4503.00    1.33495   0.78667    0.015
 4504.00    1.13874   0.80218    0.015
 4505.00    0.93204   0.79864    0.015
 4506.00    0.95368   0.77741    0.015
 4507.00    1.04415   0.77331    0.015
 4508.00    1.04111   0.80051    0.015
 4509.00    1.01466   0.82829    0.014
 4510.00    0.89997   0.83445    0.015
 4511.00    0.76735   0.82453    0.015
 4512.00    0.79562   0.80827    0.015
 4513.00    0.84956   0.79567    0.015
 4514.00    0.93004   0.79501    0.014
 4515.00    1.01367   0.80785    0.014
 4516.00    1.21691   0.81837    0.014
 4517.00    1.42983   0.81228    0.015
 4518.00    1.59303   0.79915    0.015
 4519.00    1.75397   0.78641    0.015
 4520.00    1.46453   0.77729    0.015
 4521.00    1.17300   0.77772    0.015
 4522.00    1.05759   0.77887    0.015
 4523.00    0.96041   0.77416    0.015
 4524.00    1.20513   0.77421    0.015
 4525.00    1.41740   0.78166    0.015
 4526.00    1.26611   0.78648    0.015
 4527.00    1.16978   0.77534    0.015
 4528.00    1.50355   0.75767    0.015
 4529.00    1.72621   0.75394    0.015
 4530.00    1.29190   0.75400    0.015
 4531.00    0.95005   0.74662    0.015
 4532.00    1.04100   0.73421    0.015
 4533.00    1.17968   0.72005    0.015
 4534.00    1.50075   0.71303    0.015
 4535.00    1.69688   0.71891    0.015
 4536.00    1.49461   0.73172    0.015
 4537.00    1.36402   0.74476    0.015
 4538.00    1.42712   0.74001    0.014
 4539.00    1.46365   0.71556    0.014
 4540.00    1.43861   0.70330    0.015
 4541.00    1.45506   0.72626    0.015
 4542.00    1.55468   0.76818    0.015
 4543.00    1.61435   0.79266    0.015
 4544.00    1.60425   0.78883    0.015
 4545.00    1.58752   0.77052    0.015
 4546.00    1.56064   0.75871    0.015
 4547.00    1.48698   0.76534    0.015
 4548.00    1.35052   0.77479    0.015
 4549.00    1.30811   0.76593    0.015
 4550.00    1.37687   0.75162    0.000
 4551.00    1.35565   0.75210    0.000
 4552.00    1.24065   0.75789    0.000
 4553.00    1.22096   0.75047    0.000
 4554.00    1.28891   0.72613    0.000
 4555.00    1.42103   0.71378    0.000
 4556.00    1.60515   0.73216    0.000
 4557.00    1.27393   0.74897    0.000
 4558.00    0.57517   0.74582    0.000
 4559.00    0.49778   0.73135    0.000
 4560.00    0.80926   0.71644    0.000
 4561.00    1.06488   0.71894    0.000
 4562.00    1.28995   0.74454    0.000
 4563.00    1.49307   0.76652    0.000
 4564.00    1.68576   0.77214    0.000
 4565.00    1.49058   0.77647    0.000
 4566.00    1.13632   0.78285    0.000
 4567.00    1.17335   0.78233    0.000
 4568.00    1.34751   0.76340    0.000
 4569.00    1.61203   0.73527    0.000
 4570.00    1.90327   0.72524    0.000
 4571.00    1.67745   0.73847    0.000
 4572.00    1.32497   0.76272    0.000
 4573.00    1.28899   0.78230    0.000
 4574.00    1.31572   0.78534    0.000
 4575.00    1.29139   0.77444    0.000
 4576.00    1.25916   0.75197    0.000
 4577.00    1.46305   0.73487    0.000
 4578.00    1.69396   0.74690    0.000
 4579.00    1.51794   0.76874    0.000
 4580.00    1.31067   0.77300    0.000
 4581.00    1.26697   0.76798    0.000
 4582.00    1.23007   0.76651    0.000
 4583.00    1.28873   0.76214    0.000
 4584.00    1.34334   0.74755    0.000
 4585.00    1.18816   0.73155    0.000
 4586.00    1.04730   0.72464    0.000
 4587.00    1.15668   0.72673    0.000
 4588.00    1.26428   0.72598    0.000
 4589.00    1.35291   0.72010    0.000
 4590.00    1.43494   0.72271    0.000
 4591.00    1.46711   0.73419    0.000
 4592.00    1.46192   0.74542    0.000
 4593.00    1.24202   0.75091    0.000
 4594.00    1.05835   0.75333    0.000
 4595.00    1.04019   0.75308    0.000
 4596.00    1.08269   0.74558    0.000
 4597.00    1.35209   0.73388    0.000
 4598.00    1.49219   0.72910    0.000
 4599.00    1.22791   0.73364    0.000
 4600.00    1.06233   0.73614    0.000
 4601.00    1.15873   0.73578    0.000
 4602.00    1.28012   0.73877    0.000
 4603.00    1.45848   0.74431    0.000
 4604.00    1.59399   0.74829    0.000
 4605.00    1.64497   0.74229    0.000
 4606.00    1.64506   0.73367    0.000
 4607.00    1.55764   0.73328    0.000
 4608.00    1.44936   0.73794    0.000
 4609.00    1.30967   0.74266    0.000
 4610.00    1.20582   0.74229    0.000
 4611.00    1.14940   0.74167    0.000
 4612.00    1.05554   0.74902    0.000
 4613.00    0.91801   0.76149    0.000
 4614.00    0.89684   0.77284    0.000
 4615.00    0.99523   0.77754    0.000
 4616.00    1.01094   0.76990    0.000
 4617.00    0.95171   0.75864    0.000
 4618.00    1.00698   0.75278    0.000
 4619.00    1.15372   0.75300    0.000
 4620.00    1.25489   0.75614    0.000
 4621.00    1.32402   0.75381    0.000
 4622.00    1.32056   0.75261    0.000
 4623.00    1.27234   0.75192    0.000
 4624.00    1.24460   0.74137    0.000
 4625.00    1.22789   0.73598    0.000
 4626.00    1.17414   0.74806    0.000
 4627.00    1.10306   0.76075    0.000
 4628.00    1.07944   0.76416    0.000
 4629.00    1.07495   0.76389    0.000
 4630.00    1.15760   0.76023    0.000
 4631.00    1.27022   0.75578    0.000
 4632.00    1.18712   0.75373    0.000
 4633.00    1.04733   0.74718    0.000
 4634.00    1.08460   0.73431    0.000
 4635.00    1.16429   0.73118    0.000
 4636.00    1.02284   0.74449    0.000
 4637.00    0.83868   0.75428    0.000
 4638.00    0.99772   0.74690    0.000
 4639.00    1.20828   0.73331    0.000
 4640.00    1.42965   0.72927    0.000
 4641.00    1.65221   0.73253    0.000
 4642.00    1.59222   0.72980    0.000
 4643.00    1.51167   0.72355    0.000
 4644.00    1.16842   0.72159    0.000
 4645.00    0.81523   0.72204    0.000
 4646.00    1.14163   0.72858    0.000
 4647.00    1.46401   0.73836    0.000
 4648.00    1.50931   0.73845    0.000
 4649.00    1.52444   0.73180    0.000
 4650.00    1.04668   0.72439    0.000
 4651.00    0.63848   0.70886    0.000
 4652.00    0.94223   0.69251    0.000
 4653.00    1.22483   0.68996    0.000
 4654.00    1.35289   0.69983    0.000
 4655.00    1.45526   0.71468    0.000
 4656.00    1.41402   0.72696    0.000
 4657.00    1.38540   0.73363    0.000
 4658.00    1.41306   0.73527    0.000
 4659.00    1.40328   0.72729    0.000
 4660.00    1.25632   0.71095    0.000
 4661.00    1.12058   0.70102    0.000
 4662.00    1.01923   0.70483    0.000
 4663.00    0.97558   0.72135    0.000
 4664.00    1.08241   0.74372    0.000
 4665.00    1.18827   0.75717    0.000
 4666.00    1.29194   0.75303    0.000
 4667.00    1.33606   0.73782    0.000
 4668.00    1.26452   0.72130    0.000
 4669.00    1.24640   0.71192    0.000
 4670.00    1.31874   0.71020    0.000
 4671.00    1.36740   0.69851    0.000
 4672.00    1.38091   0.67132    0.000
 4673.00    1.37239   0.65446    0.000
 4674.00    1.33513   0.66309    0.000
 4675.00    1.32684   0.68374    0.000
 4676.00    1.35182   0.70514    0.000
 4677.00    1.25721   0.71871    0.000
 4678.00    1.04140   0.71820    0.000
 4679.00    0.96369   0.71364    0.000
 4680.00    1.00941   0.71726    0.000
 4681.00    1.06920   0.72780    0.000
 4682.00    1.14007   0.73491    0.000
 4683.00    1.17571   0.72864    0.000
 4684.00    1.18694   0.71279    0.000
 4685.00    1.29747   0.70029    0.000
 4686.00    1.46831   0.69497    0.000
 4687.00    1.35816   0.69694    0.000
 4688.00    1.09902   0.70580    0.000
 4689.00    0.87731   0.71541    0.000
 4690.00    0.67283   0.72067    0.000
 4691.00    0.79831   0.71965    0.000
 4692.00    1.05452   0.71384    0.000
 4693.00    1.32117   0.71079    0.000
 4694.00    1.59136   0.71274    0.000
 4695.00    1.60337   0.71154    0.000
 4696.00    1.54212   0.70551    0.000
 4697.00    1.45411   0.70391    0.000
 4698.00    1.35983   0.70868    0.000
 4699.00    1.13471   0.71451    0.000
 4700.00    0.88497   0.72203    0.000
 4701.00    0.91743   0.72986    0.000
 4702.00    0.99094   0.72741    0.000
 4703.00    1.11795   0.70951    0.000
 4704.00    1.25061   0.69207    0.000
 4705.00    1.34134   0.68946    0.000
 4706.00    1.42919   0.69219    0.000
 4707.00    1.29409   0.68753    0.000
 4708.00    1.15141   0.67826    0.000
 4709.00    1.17501   0.67889    0.000
 4710.00    1.19895   0.69186    0.000
 4711.00    1.22608   0.69856    0.000
 4712.00    1.25342   0.68928    0.000
 4713.00    1.28399   0.67624    0.000
 4714.00    1.31099   0.67106    0.000
 4715.00    1.30293   0.67806    0.000
 4716.00    1.28865   0.69597    0.000
 4717.00    1.23036   0.70976    0.000
 4718.00    1.17332   0.70727    0.000
 4719.00    1.12312   0.69397    0.000
 4720.00    1.06787   0.68499    0.000
 4721.00    0.99058   0.69235    0.000
 4722.00    0.98699   0.70836    0.000
 4723.00    1.24783   0.71556    0.000
 4724.00    1.46053   0.71500    0.000
 4725.00    1.52833   0.71754    0.000
 4726.00    1.54780   0.72010    0.000
 4727.00    1.44345   0.71661    0.000
 4728.00    1.31957   0.71493    0.000
 4729.00    1.15267   0.72054    0.000
 4730.00    1.11258   0.72612    0.000
 4731.00    1.31492   0.72283    0.000
 4732.00    1.45154   0.70557    0.000
 4733.00    1.47850   0.68194    0.000
 4734.00    1.44547   0.66961    0.000
 4735.00    1.32471   0.67023    0.000
 4736.00    1.18650   0.67257    0.000
 4737.00    1.02585   0.67711    0.000
 4738.00    1.00625   0.68645    0.000
 4739.00    1.14643   0.69628    0.000
 4740.00    1.23292   0.70285    0.000
 4741.00    1.26577   0.69790    0.000
 4742.00    1.21341   0.68562    0.000
 4743.00    1.08596   0.68745    0.000
 4744.00    1.05127   0.70046    0.000
 4745.00    1.08858   0.70426    0.000
 4746.00    1.08503   0.69812    0.000
 4747.00    1.05358   0.69559    0.000
 4748.00    1.16162   0.70268    0.000
 4749.00    1.35312   0.70846    0.000
 4750.00    1.23817   0.70540    0.000
 4751.00    0.96325   0.70430    0.000
 4752.00    1.07405   0.70892    0.000
 4753.00    1.35945   0.70953    0.000
 4754.00    1.40483   0.70682    0.000
 4755.00    1.35675   0.70826    0.000
 4756.00    1.24728   0.71009    0.000
 4757.00    1.11746   0.70598    0.000
 4758.00    1.14957   0.69874    0.000
 4759.00    1.22671   0.69162    0.000
 4760.00    1.29885   0.68559    0.000
 4761.00    1.36984   0.68098    0.014
 4762.00    1.48518   0.67870    0.014
 4763.00    1.60863   0.68367    0.014
 4764.00    1.46490   0.69347    0.014
 4765.00    1.28354   0.69887    0.014
 4766.00    1.22364   0.69341    0.014
 4767.00    1.17606   0.67564    0.014
 4768.00    1.30400   0.65649    0.014
 4769.00    1.44328   0.64655    0.014
 4770.00    1.45089   0.64339    0.014
 4771.00    1.45448   0.64673    0.014
 4772.00    1.44395   0.65570    0.014
 4773.00    1.43569   0.66686    0.014
 4774.00    1.49360   0.68112    0.014
 4775.00    1.54000   0.69151    0.014
 4776.00    1.42029   0.68792    0.014
 4777.00    1.30610   0.67674    0.014
 4778.00    1.24385   0.67389    0.014
 4779.00    1.18782   0.68317    0.014
 4780.00    1.17446   0.69338    0.014
 4781.00    1.12930   0.69650    0.014
 4782.00    0.91574   0.69635    0.013
 4783.00    0.74152   0.69522    0.013
 4784.00    0.73487   0.68940    0.013
 4785.00    0.75267   0.68191    0.013
 4786.00    0.85641   0.68051    0.013
 4787.00    0.98985   0.68207    0.014
 4788.00    1.21105   0.67736    0.014
 4789.00    1.28761   0.67151    0.014
 4790.00    0.99995   0.67253    0.014
 4791.00    0.87470   0.66933    0.014
 4792.00    1.10164   0.66185    0.014
 4793.00    1.21237   0.66377    0.014
 4794.00    1.10441   0.66790    0.014
 4795.00    1.06998   0.66706    0.014
 4796.00    1.15638   0.66935    0.014
 4797.00    1.13547   0.67525    0.014
 4798.00    0.95996   0.68327    0.014
 4799.00    0.88136   0.69566    0.014
 4800.00    0.92557   0.70556    0.014
 4801.00    1.00885   0.70635    0.014
 4802.00    1.13577   0.69874    0.014
 4803.00    1.22188   0.68475    0.014
 4804.00    1.26778   0.66940    0.014
 4805.00    1.31492   0.66153    0.014
 4806.00    1.36313   0.66645    0.014
 4807.00    1.21661   0.68063    0.014
 4808.00    0.92107   0.69028    0.014
 4809.00    0.92015   0.68518    0.014
 4810.00    1.11742   0.67117    0.014
 4811.00    1.19579   0.66172    0.014
 4812.00    1.20411   0.66318    0.014
 4813.00    1.15840   0.66573    0.014
 4814.00    1.08494   0.66460    0.014
 4815.00    0.96103   0.66542    0.014
 4816.00    0.81467   0.66673    0.013
 4817.00    0.97498   0.66406    0.014
 4818.00    1.25262   0.66277    0.014
 4819.00    1.35536   0.66677    0.014
 4820.00    1.40123   0.67185    0.014
 4821.00    1.34341   0.67603    0.014
 4822.00    1.25735   0.67977    0.014
 4823.00    1.19416   0.68373    0.014
 4824.00    1.13608   0.68648    0.014
 4825.00    1.05202   0.68454    0.014
 4826.00    0.96333   0.68092    0.014
 4827.00    0.87889   0.67593    0.014
 4828.00    0.79502   0.65806    0.014
 4829.00    0.91010   0.63444    0.013
 4830.00    1.04451   0.63278    0.013
 4831.00    1.17625   0.65032    0.013
 4832.00    1.30783   0.66197    0.014
 4833.00    1.13551   0.66213    0.013
 4834.00    0.95600   0.65702    0.013
 4835.00    0.93403   0.65429    0.013
 4836.00    0.90829   0.65395    0.013
 4837.00    0.78399   0.64890    0.013
 4838.00    0.66804   0.64412    0.013
 4839.00    0.66597   0.64755    0.013
 4840.00    0.67146   0.65271    0.013
 4841.00    0.74529   0.65257    0.013
 4842.00    0.84259   0.64995    0.013
 4843.00    1.09553   0.64682    0.013
 4844.00    1.29224   0.63928    0.013
 4845.00    1.19875   0.62672    0.013
 4846.00    1.12680   0.62012    0.013
 4847.00    1.14452   0.62264    0.013
 4848.00    1.16160   0.62285    0.000
 4849.00    1.17651   0.62193    0.000
 4850.00    1.20585   0.62797    0.000
 4851.00    1.27704   0.63301    0.000
 4852.00    1.27748   0.62476    0.000
 4853.00    1.10284   0.60509    0.000
 4854.00    0.99562   0.58688    0.000
 4855.00    1.03223   0.58463    0.000
 4856.00    1.04683   0.59284    0.000
 4857.00    1.02062   0.59040    0.000
 4858.00    1.04690   0.57760    0.000
 4859.00    1.15815   0.56099    0.000
 4860.00    1.14628   0.53197    0.000
 4861.00    0.95957   0.50272    0.000
 4862.00    0.92945   0.49699    0.000
 4863.00    1.09496   0.49718    0.000
 4864.00    1.22343   0.47475    0.000
 4865.00    1.31113   0.42788    0.000
 4866.00    1.18998   0.37170    0.000
 4867.00    0.86598   0.34135    0.000
 4868.00    0.84593   0.36524    0.000
 4869.00    1.08617   0.41477    0.000
 4870.00    1.16456   0.45163    0.000
 4871.00    1.12085   0.48056    0.000
 4872.00    1.04053   0.50854    0.000
 4873.00    0.93593   0.52861    0.000
 4874.00    0.93367   0.54182    0.000
 4875.00    0.99081   0.54822    0.013
 4876.00    0.95238   0.53909    0.013
 4877.00    0.86560   0.52622    0.013
 4878.00    0.91165   0.53459    0.013
 4879.00    1.01586   0.55808    0.013
 4880.00    0.96083   0.57364    0.013
 4881.00    0.84594   0.57939    0.013
 4882.00    0.85457   0.58555    0.013
 4883.00    0.90258   0.59482    0.013
 4884.00    1.00510   0.60655    0.013
 4885.00    1.12213   0.61987    0.013
 4886.00    1.10520   0.62086    0.013
 4887.00    1.05903   0.60994    0.013
 4888.00    1.02231   0.60417    0.013
 4889.00    0.98722   0.60482    0.013
 4890.00    1.09197   0.60221    0.013
 4891.00    1.21514   0.59812    0.013
 4892.00    1.26352   0.59995    0.013
 4893.00    1.30494   0.60575    0.013
 4894.00    1.22393   0.60886    0.013
 4895.00    1.13598   0.60252    0.013
 4896.00    1.10601   0.58711    0.013
 4897.00    1.07843   0.58044    0.013
 4898.00    1.16661   0.60140    0.013
 4899.00    1.24624   0.63035    0.013
 4900.00    1.12302   0.64856    0.013
 4901.00    1.01528   0.66028    0.013
 4902.00    1.10759   0.66270    0.013
 4903.00    1.19961   0.65768    0.014
 4904.00    1.28912   0.64870    0.014
 4905.00    1.34173   0.63598    0.014
 4906.00    1.15686   0.63101    0.013
 4907.00    1.01386   0.63474    0.013
 4908.00    1.08146   0.63234    0.014
 4909.00    1.14522   0.62588    0.014
 4910.00    1.19341   0.63026    0.014
 4911.00    1.19255   0.64459    0.014
 4912.00    1.02614   0.65441    0.014
 4913.00    0.92268   0.65164    0.014
 4914.00    0.99842   0.63593    0.014
 4915.00    1.05705   0.61606    0.013
 4916.00    1.07402   0.60368    0.013
 4917.00    1.11307   0.60643    0.013
 4918.00    1.19844   0.62140    0.014
 4919.00    1.17439   0.63276    0.014
 4920.00    0.95066   0.64027    0.013
 4921.00    0.89693   0.64621    0.013
 4922.00    1.11431   0.64344    0.014
 4923.00    1.16377   0.62700    0.014
 4924.00    0.97824   0.59599    0.014
 4925.00    0.89955   0.56968    0.013
 4926.00    0.95246   0.56244    0.013
 4927.00    0.98629   0.57269    0.013
 4928.00    0.99942   0.58917    0.014
 4929.00    0.95625   0.59415    0.014
 4930.00    0.85917   0.59278    0.013
 4931.00    0.82144   0.60474    0.013
 4932.00    0.83382   0.62634    0.013
 4933.00    0.90197   0.63849    0.014
 4934.00    1.01158   0.64308    0.014
 4935.00    0.90809   0.64853    0.014
 4936.00    0.66543   0.65010    0.013
 4937.00    0.74001   0.64537    0.013
 4938.00    0.99596   0.62871    0.013
 4939.00    1.05073   0.60461    0.013
 4940.00    1.00537   0.59854    0.000
 4941.00    1.02892   0.61311    0.000
 4942.00    1.08214   0.61838    0.000
 4943.00    1.13316   0.60172    0.000
 4944.00    1.18337   0.58240    0.000
 4945.00    1.10038   0.58199    0.000
 4946.00    0.97572   0.60463    0.000
 4947.00    0.99479   0.63009    0.000
 4948.00    1.05136   0.63942    0.000
 4949.00    1.03534   0.64210    0.000
 4950.00    1.00386   0.64085    0.000
 4951.00    0.87526   0.63178    0.000
 4952.00    0.73029   0.62821    0.000
 4953.00    0.84254   0.63451    0.000
 4954.00    0.98751   0.64027    0.000
 4955.00    0.90696   0.64182    0.000
 4956.00    0.80641   0.64389    0.000
 4957.00    0.68084   0.64483    0.000
 4958.00    0.55394   0.63607    0.000
 4959.00    0.60746   0.62816    0.000
 4960.00    0.66398   0.62983    0.000
 4961.00    0.68510   0.62643    0.000
 4962.00    0.71928   0.60275    0.000
 4963.00    1.03724   0.56837    0.000
 4964.00    1.32834   0.56949    0.000
 4965.00    1.28949   0.60941    0.000
 4966.00    1.22860   0.63465    0.000
 4967.00    0.98316   0.63356    0.000
 4968.00    0.75599   0.63004    0.000
 4969.00    0.64290   0.63091    0.000
 4970.00    0.58918   0.62518    0.000
 4971.00    0.82650   0.60980    0.000
 4972.00    0.99590   0.60134    0.000
 4973.00    0.89493   0.60219    0.000
 4974.00    0.82460   0.60243    0.000
 4975.00    0.85563   0.60507    0.000
 4976.00    0.86995   0.61081    0.000
 4977.00    0.83759   0.61764    0.000
 4978.00    0.80425   0.62347    0.000
 4979.00    0.76857   0.62642    0.000
 4980.00    0.68795   0.63029    0.000
 4981.00    0.51449   0.62986    0.000
 4982.00    0.38658   0.62445    0.000
 4983.00    0.34050   0.61760    0.000
 4984.00    0.38035   0.60770    0.000
 4985.00    0.55519   0.60074    0.000
 4986.00    0.74573   0.59473    0.000
 4987.00    0.95793   0.57794    0.000
 4988.00    1.05730   0.55306    0.000
 4989.00    1.01968   0.54247    0.000
 4990.00    0.91284   0.55110    0.000
 4991.00    0.73191   0.56587    0.000
 4992.00    0.64930   0.58411    0.000
 4993.00    0.65953   0.60382    0.000
 4994.00    0.74386   0.61247    0.000
 4995.00    0.88986   0.60831    0.000
 4996.00    0.95385   0.59947    0.000
 4997.00    0.95774   0.59170    0.000
 4998.00    0.89518   0.59174    0.000
 4999.00    0.78986   0.59226    0.000
 5000.00    0.69210   0.59404    0.000
 5001.00    0.59858   0.60376    0.000
 5002.00    0.58939   0.61020    0.000
 5003.00    0.62151   0.60998    0.000
 5004.00    0.70671   0.60175    0.000
 5005.00    0.81439   0.58565    0.000
 5006.00    0.85906   0.57275    0.000
 5007.00    0.88088   0.57024    0.000
 5008.00    0.98080   0.57412    0.000
 5009.00    1.10467   0.57977    0.000
 5010.00    0.99699   0.57578    0.000
 5011.00    0.83019   0.55733    0.000
 5012.00    0.89738   0.54715    0.000
 5013.00    1.01319   0.56168    0.000
 5014.00    1.03009   0.58560    0.000
 5015.00    1.03079   0.59662    0.000
 5016.00    0.96587   0.59138    0.000
 5017.00    0.89290   0.57819    0.000
 5018.00    0.79106   0.55886    0.000
 5019.00    0.68678   0.54341    0.000
 5020.00    0.84551   0.54184    0.000
 5021.00    1.01710   0.55266    0.000
 5022.00    0.80514   0.56074    0.000
 5023.00    0.59168   0.55302    0.000
 5024.00    0.64839   0.54129    0.000
 5025.00    0.70790   0.54635    0.000
 5026.00    0.82360   0.56226    0.000
 5027.00    0.90769   0.56831    0.000
 5028.00    0.62241   0.56492    0.000
 5029.00    0.37766   0.57127    0.013
 5030.00    0.46005   0.58394    0.013
 5031.00    0.56789   0.58858    0.013
 5032.00    0.83004   0.58336    0.013
 5033.00    1.05810   0.57021    0.013
 5034.00    1.12313   0.56826    0.013
 5035.00    1.12753   0.57921    0.013
 5036.00    0.89573   0.58490    0.013
 5037.00    0.75919   0.58784    0.013
 5038.00    0.93160   0.59901    0.013
 5039.00    1.00862   0.60843    0.013
 5040.00    0.82378   0.60017    0.013
 5041.00    0.74965   0.57716    0.012
 5042.00    0.93580   0.56252    0.013
 5043.00    1.03539   0.56835    0.013
 5044.00    0.95903   0.56975    0.013
 5045.00    0.87179   0.55351    0.013
 5046.00    0.76530   0.52998    0.012
 5047.00    0.70862   0.51498    0.012
 5048.00    0.72906   0.53294    0.012
 5049.00    0.74399   0.56948    0.012
 5050.00    0.75145   0.59072    0.012
 5051.00    0.74947   0.60138    0.013
 5052.00    0.73619   0.60756    0.013
 5053.00    0.79587   0.59824    0.013
 5054.00    0.93253   0.57726    0.012
 5055.00    0.91041   0.56245    0.012
 5056.00    0.74048   0.55978    0.012
 5057.00    0.70548   0.55932    0.012
 5058.00    0.78121   0.56183    0.012
 5059.00    0.79516   0.57480    0.012
 5060.00    0.76447   0.58555    0.012
 5061.00    0.81694   0.58750    0.012
 5062.00    0.92212   0.58671    0.012
 5063.00    0.90243   0.58942    0.012
 5064.00    0.81351   0.59441    0.012
 5065.00    0.79392   0.59534    0.012
 5066.00    0.80776   0.59687    0.012
 5067.00    0.92691   0.60177    0.012
 5068.00    1.08989   0.60314    0.012
 5069.00    1.07698   0.59160    0.012
 5070.00    1.00144   0.56943    0.012
 5071.00    0.91497   0.55690    0.012
 5072.00    0.82523   0.56433    0.012
 5073.00    0.88569   0.56913    0.012
 5074.00    0.98367   0.56399    0.012
 5075.00    0.87297   0.56426    0.012
 5076.00    0.71997   0.57279    0.012
 5077.00    0.73500   0.57173    0.012
 5078.00    0.77673   0.56067    0.012
 5079.00    0.88666   0.56234    0.012
 5080.00    1.00465   0.56799    0.012
 5081.00    1.01872   0.56452    0.012
 5082.00    1.02443   0.56528    0.012
 5083.00    0.95582   0.57210    0.012
 5084.00    0.88386   0.56476    0.012
 5085.00    0.72626   0.53764    0.012
 5086.00    0.57202   0.52299    0.012
 5087.00    0.63593   0.53262    0.012
 5088.00    0.69951   0.54524    0.012
 5089.00    0.75707   0.55125    0.012
 5090.00    0.81074   0.55747    0.012
 5091.00    0.82111   0.56750    0.012
 5092.00    0.83078   0.57204    0.012
 5093.00    0.83502   0.56841    0.013
 5094.00    0.85043   0.56777    0.013
 5095.00    0.93165   0.57237    0.013
 5096.00    0.97554   0.57424    0.013
 5097.00    0.84527   0.57400    0.012
 5098.00    0.72806   0.57892    0.012
 5099.00    0.66063   0.58671    0.012
 5100.00    0.65679   0.58871    0.013
 5101.00    0.85521   0.57910    0.013
 5102.00    0.95240   0.56469    0.013
 5103.00    0.77666   0.55080    0.012
 5104.00    0.62613   0.53581    0.012
 5105.00    0.53395   0.52687    0.013
 5106.00    0.52101   0.53594    0.013
 5107.00    0.66662   0.55449    0.013
 5108.00    0.72621   0.56589    0.013
 5109.00    0.63592   0.56521    0.013
 5110.00    0.66235   0.56072    0.013
 5111.00    0.86683   0.56046    0.013
 5112.00    0.95128   0.55617    0.013
 5113.00    0.87488   0.54467    0.013
 5114.00    0.86492   0.54028    0.013
 5115.00    0.93336   0.54120    0.013
 5116.00    0.87665   0.53976    0.013
 5117.00    0.68970   0.54867    0.013
 5118.00    0.72750   0.56307    0.013
 5119.00    0.97155   0.56710    0.013
 5120.00    0.93241   0.56534    0.013
 5121.00    0.66417   0.56430    0.013
 5122.00    0.59786   0.56829    0.012
 5123.00    0.67530   0.57659    0.012
 5124.00    0.69212   0.57860    0.012
 5125.00    0.67106   0.57332    0.012
 5126.00    0.68016   0.56596    0.012
 5127.00    0.70571   0.55761    0.012
 5128.00    0.74966   0.54710    0.012
 5129.00    0.80234   0.53382    0.012
 5130.00    0.80389   0.52508    0.012
 5131.00    0.78452   0.52872    0.012
 5132.00    0.81992   0.53551    0.012
 5133.00    0.87447   0.53669    0.012
 5134.00    0.67270   0.53314    0.012
 5135.00    0.39538   0.52947    0.012
 5136.00    0.49537   0.53230    0.012
 5137.00    0.68753   0.53998    0.012
 5138.00    0.91277   0.54333    0.012
 5139.00    1.14454   0.54148    0.012
 5140.00    1.08328   0.54520    0.012
 5141.00    0.97684   0.55637    0.012
 5142.00    0.83372   0.55489    0.012
 5143.00    0.68642   0.54093    0.012
 5144.00    0.65396   0.53045    0.012
 5145.00    0.63027   0.52302    0.012
 5146.00    0.67529   0.53041    0.012
 5147.00    0.72313   0.54022    0.012
 5148.00    0.81964   0.52747    0.012
 5149.00    0.91300   0.52084    0.012
 5150.00    0.85673   0.53445    0.012
 5151.00    0.80489   0.53814    0.012
 5152.00    0.82974   0.53164    0.012
 5153.00    0.84561   0.52644    0.012
 5154.00    0.76598   0.52518    0.012
 5155.00    0.68850   0.53440    0.012
 5156.00    0.62721   0.53892    0.012
 5157.00    0.60480   0.53041    0.013
 5158.00    0.80497   0.52298    0.013
 5159.00    1.00259   0.51851    0.013
 5160.00    1.18855   0.51639    0.013
 5161.00    1.27168   0.52474    0.013
 5162.00    0.97114   0.53924    0.012
 5163.00    0.68366   0.55214    0.012
 5164.00    0.43694   0.55852    0.013
 5165.00    0.31725   0.55585    0.013
 5166.00    0.53401   0.55382    0.013
 5167.00    0.66874   0.55022    0.013
 5168.00    0.61695   0.54105    0.012
 5169.00    0.55796   0.53872    0.013
 5170.00    0.48479   0.53706    0.013
 5171.00    0.43325   0.51854    0.013
 5172.00    0.41883   0.48454    0.013
 5173.00    0.42794   0.45006    0.013
 5174.00    0.47239   0.43796    0.013
 5175.00    0.62253   0.45887    0.013
 5176.00    0.91225   0.48717    0.013
 5177.00    0.96763   0.48033    0.013
 5178.00    0.75040   0.44626    0.013
 5179.00    0.63355   0.44290    0.013
 5180.00    0.61968   0.48364    0.013
 5181.00    0.61431   0.52393    0.012
 5182.00    0.61663   0.53495    0.012
 5183.00    0.61598   0.53606    0.012
 5184.00    0.61296   0.54138    0.012
 5185.00    0.67203   0.54012    0.012
 5186.00    0.77466   0.53266    0.012
 5187.00    0.77389   0.52256    0.012
 5188.00    0.70948   0.49432    0.012
 5189.00    0.72870   0.44864    0.012
 5190.00    0.79287   0.43416    0.000
 5191.00    0.78847   0.47072    0.000
 5192.00    0.75207   0.51210    0.000
 5193.00    0.66749   0.52715    0.000
 5194.00    0.56353   0.52288    0.000
 5195.00    0.47406   0.52617    0.000
 5196.00    0.38955   0.53630    0.000
 5197.00    0.30779   0.51984    0.000
 5198.00    0.22683   0.49496    0.000
 5199.00    0.36107   0.49795    0.000
 5200.00    0.54671   0.51106    0.000
 5201.00    0.68065   0.51024    0.000
 5202.00    0.80464   0.51021    0.000
 5203.00    0.78911   0.51817    0.000
 5204.00    0.75271   0.52477    0.000
 5205.00    0.67455   0.53069    0.000
 5206.00    0.59182   0.53638    0.000
 5207.00    0.72850   0.53787    0.000
 5208.00    0.88102   0.53428    0.000
 5209.00    0.83897   0.52710    0.000
 5210.00    0.78967   0.51150    0.000
 5211.00    0.65467   0.49184    0.012
 5212.00    0.52564   0.48591    0.012
 5213.00    0.62824   0.49057    0.012
 5214.00    0.72509   0.48752    0.012
 5215.00    0.72859   0.48894    0.012
 5216.00    0.72034   0.50128    0.012
 5217.00    0.59231   0.51531    0.012
 5218.00    0.48388   0.53187    0.012
 5219.00    0.51800   0.54384    0.012
 5220.00    0.55336   0.54186    0.012
 5221.00    0.59558   0.52477    0.012
 5222.00    0.62781   0.51049    0.012
 5223.00    0.61556   0.51380    0.012
 5224.00    0.60576   0.52825    0.012
 5225.00    0.60494   0.54058    0.012
 5226.00    0.63463   0.54771    0.012
 5227.00    0.75774   0.55356    0.012
 5228.00    0.79705   0.55097    0.012
 5229.00    0.61833   0.54050    0.012
 5230.00    0.54562   0.52644    0.012
 5231.00    0.70999   0.50379    0.012
 5232.00    0.73713   0.47528    0.012
 5233.00    0.49828   0.46306    0.012
 5234.00    0.46678   0.48472    0.012
 5235.00    0.78580   0.51503    0.012
 5236.00    0.92593   0.53042    0.012
 5237.00    0.80112   0.53598    0.012
 5238.00    0.77651   0.52612    0.013
 5239.00    0.88237   0.50683    0.012
 5240.00    0.86614   0.49851    0.012
 5241.00    0.70988   0.50612    0.012
 5242.00    0.57061   0.52264    0.012
 5243.00    0.44854   0.53531    0.012
 5244.00    0.51179   0.53995    0.012
 5245.00    0.74038   0.53923    0.012
 5246.00    0.75624   0.53747    0.012
 5247.00    0.60484   0.53940    0.012
 5248.00    0.61510   0.53949    0.012
 5249.00    0.73713   0.53732    0.012
 5250.00    0.74010   0.54229    0.012
 5251.00    0.67091   0.54804    0.012
 5252.00    0.59932   0.53566    0.012
 5253.00    0.52646   0.51601    0.012
 5254.00    0.51381   0.51398    0.012
 5255.00    0.52880   0.51724    0.012
 5256.00    0.61253   0.50933    0.012
 5257.00    0.72343   0.50740    0.012
 5258.00    0.76571   0.51746    0.012
 5259.00    0.78486   0.52270    0.012
 5260.00    0.73864   0.51809    0.012
 5261.00    0.67392   0.51202    0.012
 5262.00    0.61414   0.51868    0.012
 5263.00    0.55551   0.53422    0.012
 5264.00    0.66720   0.54636    0.012
 5265.00    0.81083   0.54812    0.012
 5266.00    0.93294   0.53924    0.012
 5267.00    1.05194   0.52254    0.013
 5268.00    0.97126   0.50124    0.012
 5269.00    0.86959   0.48180    0.012
 5270.00    0.88636   0.46728    0.012
 5271.00    0.91121   0.45769    0.012
 5272.00    0.86639   0.45975    0.012
 5273.00    0.81924   0.47907    0.012
 5274.00    0.80061   0.48746    0.012
 5275.00    0.78249   0.46071    0.012
 5276.00    0.77967   0.44094    0.012
 5277.00    0.76801   0.46286    0.012
 5278.00    0.62191   0.49402    0.012
 5279.00    0.50710   0.50343    0.012
 5280.00    0.69741   0.49934    0.012
 5281.00    0.85598   0.49094    0.012
 5282.00    0.79103   0.49290    0.012
 5283.00    0.75119   0.51431    0.012
 5284.00    0.84752   0.53368    0.012
 5285.00    0.91513   0.53579    0.012
 5286.00    0.85788   0.52632    0.012
 5287.00    0.81014   0.51568    0.012
 5288.00    0.79643   0.50899    0.012
 5289.00    0.78669   0.50030    0.012
 5290.00    0.78887   0.49526    0.012
 5291.00    0.81266   0.51166    0.012
 5292.00    0.89168   0.53572    0.012
 5293.00    0.88180   0.54514    0.012
 5294.00    0.67631   0.54161    0.012
 5295.00    0.58674   0.53934    0.012
 5296.00    0.71838   0.54272    0.012
 5297.00    0.78306   0.54507    0.012
 5298.00    0.73625   0.54096    0.012
 5299.00    0.70731   0.53578    0.012
 5300.00    0.70445   0.53601    0.012
 5301.00    0.66155   0.53314    0.012
 5302.00    0.56726   0.51988    0.012
 5303.00    0.61338   0.49966    0.012
 5304.00    0.81826   0.48757    0.012
 5305.00    0.84582   0.49669    0.012
 5306.00    0.69656   0.51141    0.012
 5307.00    0.61011   0.51249    0.012
 5308.00    0.57892   0.50933    0.012
 5309.00    0.54983   0.51664    0.012
 5310.00    0.52236   0.53071    0.012
 5311.00    0.45428   0.53930    0.012
 5312.00    0.35852   0.53619    0.012
 5313.00    0.42807   0.52682    0.012
 5314.00    0.59634   0.52234    0.012
 5315.00    0.71663   0.52813    0.012
 5316.00    0.81193   0.53631    0.012
 5317.00    0.73029   0.53685    0.011
 5318.00    0.56872   0.53212    0.011
 5319.00    0.56398   0.52771    0.011
 5320.00    0.62017   0.52553    0.011
 5321.00    0.58456   0.52046    0.011
 5322.00    0.51861   0.50860    0.011
 5323.00    0.64965   0.50349    0.011
 5324.00    0.83530   0.51204    0.011
 5325.00    0.88757   0.52065    0.011
 5326.00    0.90942   0.52234    0.011
 5327.00    0.76586   0.52158    0.011
 5328.00    0.59211   0.51853    0.011
 5329.00    0.55013   0.50951    0.011
 5330.00    0.52664   0.49673    0.011
 5331.00    0.63399   0.49530    0.011
 5332.00    0.75455   0.49960    0.011
 5333.00    0.81019   0.48370    0.011
 5334.00    0.86167   0.45172    0.011
 5335.00    0.77203   0.44655    0.011
 5336.00    0.67829   0.48044    0.011
 5337.00    0.63202   0.52344    0.011
 5338.00    0.58609   0.52943    0.011
 5339.00    0.54955   0.51194    0.011
 5340.00    0.52092   0.50957    0.011
 5341.00    0.60558   0.51657    0.011
 5342.00    0.68850   0.51626    0.012
 5343.00    0.75505   0.51045    0.011
 5344.00    0.80847   0.50891    0.011
 5345.00    0.77235   0.50425    0.011
 5346.00    0.73089   0.48895    0.012
 5347.00    0.66118   0.48251    0.012
 5348.00    0.61612   0.49651    0.012
 5349.00    0.67571   0.51160    0.012
 5350.00    0.72267   0.51484    0.012
 5351.00    0.72533   0.50900    0.012
 5352.00    0.73238   0.50442    0.012
 5353.00    0.75237   0.50597    0.012
 5354.00    0.74233   0.50540    0.012
 5355.00    0.65680   0.50098    0.012
 5356.00    0.61127   0.50307    0.012
 5357.00    0.65233   0.51501    0.011
 5358.00    0.71554   0.52325    0.011
 5359.00    0.82037   0.52302    0.011
 5360.00    0.81872   0.52613    0.011
 5361.00    0.64243   0.53308    0.012
 5362.00    0.57595   0.53593    0.012
 5363.00    0.66742   0.53527    0.012
 5364.00    0.75537   0.53551    0.012
 5365.00    0.83884   0.53639    0.011
 5366.00    0.83812   0.53368    0.011
 5367.00    0.74354   0.52344    0.011
 5368.00    0.79721   0.51173   -2.000
 5369.00    0.99665   0.50745   -2.000
 5370.00    1.10008   0.50656   -2.000
 5371.00    1.12025   0.50296   -2.000
 5372.00    1.18144   0.50039   -2.000
 5373.00    1.27395   0.50012   -2.000
 5374.00    1.20890   0.49897   -2.000
 5375.00    1.03804   0.49268   -2.000
 5376.00    0.97405   0.47827   -2.000
 5377.00    0.97290   0.46548   -2.000
 5378.00    0.95111   0.47007   -2.000
 5379.00    0.91872   0.49181   -2.000
 5380.00    0.86269   0.51289   -2.000
 5381.00    0.79617   0.52454   -2.000
 5382.00    0.69353   0.52498   -2.000
 5383.00    0.57711   0.51872    0.011
 5384.00    0.71976   0.51653    0.011
 5385.00    0.94644   0.51566    0.011
 5386.00    0.80655   0.51025    0.011
 5387.00    0.56712   0.50415    0.011
 5388.00    0.53607   0.50119    0.011
 5389.00    0.55143   0.49898    0.011
 5390.00    0.57508   0.50165    0.011
 5391.00    0.60020   0.50923    0.011
 5392.00    0.61818   0.51345    0.011
 5393.00    0.63519   0.51265    0.011
 5394.00    0.62093   0.50999    0.011
 5395.00    0.60365   0.50532    0.011
 5396.00    0.55139   0.49977    0.011
 5397.00    0.49704   0.49615    0.011
 5398.00    0.44156   0.49302    0.011
 5399.00    0.38684   0.49062    0.011
 5400.00    0.46253   0.49108    0.011
 5401.00    0.53367   0.49106    0.011
 5402.00    0.48742   0.48222    0.011
 5403.00    0.45215   0.46922    0.011
 5404.00    0.56566   0.47155    0.011
 5405.00    0.66165   0.48655    0.011
 5406.00    0.59997   0.49415    0.011
 5407.00    0.53531   0.49543    0.011
 5408.00    0.45089   0.49744    0.011
 5409.00    0.37141   0.49131    0.011
 5410.00    0.31735   0.47364    0.011
 5411.00    0.29825   0.45566    0.011
 5412.00    0.42426   0.45161    0.011
 5413.00    0.52604   0.46455    0.011
 5414.00    0.54459   0.47850    0.011
 5415.00    0.53531   0.47784    0.011
 5416.00    0.44552   0.46938    0.011
 5417.00    0.43012   0.47169    0.011
 5418.00    0.59846   0.48573    0.011
 5419.00    0.68771   0.49538    0.011
 5420.00    0.60859   0.49365    0.011
 5421.00    0.56409   0.49093    0.011
 5422.00    0.58365   0.49654    0.011
 5423.00    0.65726   0.50444    0.011
 5424.00    0.81820   0.50538    0.011
 5425.00    0.88825   0.50064    0.011
 5426.00    0.82945   0.49541    0.010
 5427.00    0.71887   0.49391    0.010
 5428.00    0.54371   0.49663    0.010
 5429.00    0.46963   0.49381    0.010
 5430.00    0.50666   0.48415    0.010
 5431.00    0.57559   0.48295    0.010
 5432.00    0.67542   0.49481    0.010
 5433.00    0.65084   0.50700    0.010
 5434.00    0.51987   0.50232    0.010
 5435.00    0.47092   0.48068    0.010
 5436.00    0.48371   0.46787    0.010
 5437.00    0.51092   0.47624    0.010
 5438.00    0.54765   0.48489    0.010
 5439.00    0.55853   0.47944    0.010
 5440.00    0.55443   0.46939    0.010
 5441.00    0.54815   0.46626    0.011
 5442.00    0.54076   0.47227    0.011
 5443.00    0.56050   0.48348    0.011
 5444.00    0.59209   0.49613    0.011
 5445.00    0.66024   0.50573    0.011
 5446.00    0.74210   0.51036    0.011
 5447.00    0.68894   0.51163    0.011
 5448.00    0.59282   0.51113    0.011
 5449.00    0.61515   0.51023    0.011
 5450.00    0.66896   0.50495    0.011
 5451.00    0.64953   0.49002    0.011
 5452.00    0.61417   0.46871    0.011
 5453.00    0.60162   0.45681    0.011
 5454.00    0.59302   0.46710    0.011
 5455.00    0.65579   0.48657    0.011
 5456.00    0.72792   0.49738    0.011
 5457.00    0.60382   0.49951    0.011
 5458.00    0.46160   0.49821    0.011
 5459.00    0.49111   0.49461    0.011
 5460.00    0.53026   0.48399    0.011
 5461.00    0.60709   0.46622    0.011
 5462.00    0.68405   0.45805    0.011
 5463.00    0.68583   0.47028    0.011
 5464.00    0.68856   0.48824    0.011
 5465.00    0.71324   0.49700    0.011
 5466.00    0.72702   0.49611    0.011
 5467.00    0.60086   0.48933    0.011
 5468.00    0.49495   0.47959    0.010
 5469.00    0.56433   0.47015    0.010
 5470.00    0.61839   0.47046    0.010
 5471.00    0.57426   0.48099    0.010
 5472.00    0.54287   0.48768    0.010
 5473.00    0.57535   0.48771    0.010
 5474.00    0.59547   0.48914    0.010
 5475.00    0.56541   0.49005    0.010
 5476.00    0.52613   0.48679    0.010
 5477.00    0.45581   0.48416    0.010
 5478.00    0.39882   0.48265   -2.000
 5479.00    0.37967   0.47754   -2.000
 5480.00    0.40008   0.47326   -2.000
 5481.00    0.51652   0.46974   -2.000
 5482.00    0.66048   0.45637   -2.000
 5483.00    0.86211   0.44462   -2.000
 5484.00    1.05419   0.45269   -2.000
 5485.00    1.22891   0.47050   -2.000
 5486.00    1.40432   0.47675   -2.000
 5487.00    1.58083   0.46950   -2.000
 5488.00    1.86023   0.46493   -2.000
 5489.00    2.28334   0.47046   -2.000
 5490.00    2.37542   0.48017   -2.000
 5491.00    2.06052   0.48866   -2.000
 5492.00    1.66074   0.48877   -2.000
 5493.00    1.16899   0.47863   -2.000
 5494.00    0.86198   0.47143   -2.000
 5495.00    0.73158   0.48248   -2.000
 5496.00    0.64152   0.49612   -2.000
 5497.00    0.58545   0.49328   -2.000
 5498.00    0.52358   0.48572   -2.000
 5499.00    0.45740   0.48067   -2.000
 5500.00    0.47601   0.47785   -2.000
 5501.00    0.54989   0.48032   -2.000
 5502.00    0.55441   0.48061    0.011
 5503.00    0.51936   0.47299    0.010
 5504.00    0.46507   0.47003    0.010
 5505.00    0.40122   0.47938    0.011
 5506.00    0.51955   0.48463    0.011
 5507.00    0.71616   0.47553    0.011
 5508.00    0.73276   0.46580    0.011
 5509.00    0.68306   0.46616    0.011
 5510.00    0.53508   0.47236    0.010
 5511.00    0.35643   0.47349    0.010
 5512.00    0.39872   0.46487    0.010
 5513.00    0.49850   0.45938    0.010
 5514.00    0.46915   0.46545    0.010
 5515.00    0.41239   0.47219    0.010
 5516.00    0.38777   0.47182    0.010
 5517.00    0.36856   0.46708    0.010
 5518.00    0.37700   0.46148    0.010
 5519.00    0.38895   0.45799    0.010
 5520.00    0.47073   0.45953    0.010
 5521.00    0.55867   0.46527    0.010
 5522.00    0.66430   0.47052    0.010
 5523.00    0.77085   0.47394    0.010
 5524.00    0.74641   0.47943    0.010
 5525.00    0.71856   0.48457    0.010
 5526.00    0.61792   0.48472    0.010
 5527.00    0.51882   0.48216    0.010
 5528.00    0.45288   0.48103    0.010
 5529.00    0.39778   0.48147    0.010
 5530.00    0.47483   0.48029    0.010
 5531.00    0.55113   0.47501    0.010
 5532.00    0.62117   0.46739    0.010
 5533.00    0.66703   0.45814    0.010
 5534.00    0.56244   0.44939    0.010
 5535.00    0.49006   0.45113    0.010
 5536.00    0.57504   0.46380    0.010
 5537.00    0.63400   0.47431    0.010
 5538.00    0.58965   0.47644    0.010
 5539.00    0.55234   0.47330    0.010
 5540.00    0.53827   0.46743    0.010
 5541.00    0.52251   0.46158    0.010
 5542.00    0.50202   0.46202    0.010
 5543.00    0.46486   0.46783    0.010
 5544.00    0.38792   0.47107    0.010
 5545.00    0.32829   0.47334    0.010
 5546.00    0.30436   0.47805    0.010
 5547.00    0.29031   0.48128    0.010
 5548.00    0.29401   0.47939    0.010
 5549.00    0.32958   0.47345    0.010
 5550.00    0.41512   0.46850    0.010
 5551.00    0.44001   0.46727    0.010
 5552.00    0.38138   0.46769    0.010
 5553.00    0.38131   0.47056    0.010
 5554.00    0.45220   0.47591    0.010
 5555.00    0.50138   0.48053    0.010
 5556.00    0.52736   0.48330    0.010
 5557.00    0.50105   0.48368    0.010
 5558.00    0.42546   0.48064    0.010
 5559.00    0.43328   0.47514    0.010
 5560.00    0.51042   0.46944    0.010
 5561.00    0.53917   0.46711    0.010
 5562.00    0.53254   0.46869    0.010
 5563.00    0.50883   0.47000    0.010
 5564.00    0.47417   0.46993    0.009
 5565.00    0.54380   0.47041    0.009
 5566.00    0.67205   0.47070    0.010
 5567.00    0.64701   0.46947    0.010
 5568.00    0.54701   0.46573    0.010
 5569.00    0.49279   0.46085    0.010
 5570.00    0.45790   0.45997    0.010
 5571.00    0.44616   0.46171    0.010
 5572.00    0.44278   0.46085    0.009
 5573.00    0.45758   0.45926    0.009
 5574.00    0.47794   0.45890    0.010
 5575.00    0.53232   0.45693    0.010
 5576.00    0.59537   0.45578    0.010
 5577.00    0.55064   0.45948    0.010
 5578.00    0.48359   0.45985    0.010
 5579.00    0.53063   0.45406    0.010
 5580.00    0.59629   0.45380    0.010
 5581.00    0.57341   0.45914    0.010
 5582.00    0.53972   0.46114    0.010
 5583.00    0.45357   0.46169    0.010
 5584.00    0.36302   0.46416    0.010
 5585.00    0.48708   0.46694    0.010
 5586.00    0.62153   0.46869    0.010
 5587.00    0.44166   0.46744    0.010
 5588.00    0.26059   0.46375    0.010
 5589.00    0.28863   0.46218    0.010
 5590.00    0.32215   0.46302    0.010
 5591.00    0.46453   0.46028    0.010
 5592.00    0.59870   0.44987    0.010
 5593.00    0.63753   0.43659    0.011
 5594.00    0.67104   0.42892    0.011
 5595.00    0.66183   0.42838    0.011
 5596.00    0.64697   0.43344    0.011
 5597.00    0.59797   0.44255    0.011
 5598.00    0.54630   0.44924    0.010
 5599.00    0.48187   0.44937    0.010
 5600.00    0.42980   0.44585    0.010
 5601.00    0.42577   0.44672    0.010
 5602.00    0.44192   0.45635    0.010
 5603.00    0.52342   0.46240    0.010
 5604.00    0.60027   0.45517    0.010
 5605.00    0.66440   0.44570    0.010
 5606.00    0.66014   0.44308    0.010
 5607.00    0.49539   0.44149    0.010
 5608.00    0.38194   0.43722    0.010
 5609.00    0.37259   0.43629    0.010
 5610.00    0.37408   0.44412    0.009
 5611.00    0.39474   0.45702    0.009
 5612.00    0.40337   0.46772    0.009
 5613.00    0.39342   0.47268    0.010
 5614.00    0.39138   0.47240    0.010
 5615.00    0.40010   0.47040    0.010
 5616.00    0.40241   0.46886    0.009
 5617.00    0.39708   0.46872    0.009
 5618.00    0.38915   0.47010    0.009
 5619.00    0.37848   0.47002    0.009
 5620.00    0.43995   0.46170    0.010
 5621.00    0.56846   0.44276    0.010
 5622.00    0.61763   0.42877    0.010
 5623.00    0.60181   0.43429    0.010
 5624.00    0.55225   0.44698    0.010
 5625.00    0.47838   0.45044    0.010
 5626.00    0.42848   0.44862    0.010
 5627.00    0.39377   0.45116    0.010
 5628.00    0.40344   0.45657    0.010
 5629.00    0.43766   0.45621    0.010
 5630.00    0.45841   0.44697    0.010
 5631.00    0.47269   0.43795    0.010
 5632.00    0.47258   0.43919    0.010
 5633.00    0.46649   0.44656    0.010
 5634.00    0.38328   0.45168    0.010
 5635.00    0.27267   0.45567    0.010
 5636.00    0.29794   0.46013    0.010
 5637.00    0.36397   0.46217    0.010
 5638.00    0.43286   0.46186    0.010
 5639.00    0.50247   0.45990    0.010
 5640.00    0.49549   0.45675    0.010
 5641.00    0.47304   0.45385    0.010
 5642.00    0.45388   0.45041    0.010
 5643.00    0.43525   0.44593    0.009
 5644.00    0.47500   0.44305    0.009
 5645.00    0.52162   0.44471    0.009
 5646.00    0.52471   0.44706    0.009
 5647.00    0.52432   0.44421    0.009
 5648.00    0.57199   0.44116    0.009
 5649.00    0.62180   0.44335    0.009
 5650.00    0.56183   0.44672    0.009
 5651.00    0.50023   0.44849    0.009
 5652.00    0.42015   0.44978    0.009
 5653.00    0.34654   0.45162    0.009
 5654.00    0.39218   0.45351    0.009
 5655.00    0.43106   0.45300    0.009
 5656.00    0.39503   0.45003    0.009
 5657.00    0.35873   0.44945    0.010
 5658.00    0.32025   0.45318    0.010
 5659.00    0.29957   0.45584    0.009
 5660.00    0.38339   0.45271    0.009
 5661.00    0.44697   0.44657    0.009
 5662.00    0.41641   0.44480    0.010
 5663.00    0.40567   0.44251    0.010
 5664.00    0.47033   0.42976    0.010
 5665.00    0.52005   0.41891    0.010
 5666.00    0.52240   0.42622    0.010
 5667.00    0.51168   0.43883    0.010
 5668.00    0.46581   0.43840    0.010
 5669.00    0.42876   0.43208    0.010
 5670.00    0.41205   0.43426    0.010
 5671.00    0.37699   0.44336    0.010
 5672.00    0.30527   0.44807    0.010
 5673.00    0.29460   0.44488    0.010
 5674.00    0.39010   0.44056    0.010
 5675.00    0.44345   0.43965    0.010
 5676.00    0.43262   0.44090    0.010
 5677.00    0.40486   0.44400    0.010
 5678.00    0.35445   0.44912    0.010
 5679.00    0.29950   0.45459    0.010
 5680.00    0.23920   0.45684    0.010
 5681.00    0.23080   0.45470    0.010
 5682.00    0.27630   0.45263    0.009
 5683.00    0.33620   0.45393    0.009
 5684.00    0.40929   0.45429    0.009
 5685.00    0.47372   0.45164    0.009
 5686.00    0.53115   0.44966    0.009
 5687.00    0.51255   0.44823    0.009
 5688.00    0.43993   0.44334    0.009
 5689.00    0.35491   0.43645    0.009
 5690.00    0.26217   0.43511    0.009
 5691.00    0.27979   0.43915    0.009
 5692.00    0.35753   0.44047    0.009
 5693.00    0.43850   0.43663    0.009
 5694.00    0.52100   0.43217    0.009
 5695.00    0.51313   0.43260    0.009
 5696.00    0.46835   0.43896    0.009
 5697.00    0.52338   0.44601    0.009
 5698.00    0.61324   0.45023    0.010
 5699.00    0.64100   0.45233    0.010
 5700.00    0.65051   0.45143    0.010
 5701.00    0.56365   0.44850    0.010
 5702.00    0.45330   0.44784    0.010
 5703.00    0.43571   0.44844    0.010
 5704.00    0.43637   0.44493    0.010
 5705.00    0.44832   0.43986    0.010
 5706.00    0.46199   0.43801    0.010
 5707.00    0.42374   0.43469    0.010
 5708.00    0.37961   0.43016    0.010
 5709.00    0.36533   0.43140    0.010
 5710.00    0.35331   0.43722    0.010
 5711.00    0.36849   0.43984    0.010
 5712.00    0.38477   0.43563    0.010
 5713.00    0.46103   0.42884    0.010
 5714.00    0.53564   0.42349    0.010
 5715.00    0.52282   0.41854    0.010
 5716.00    0.50831   0.41585    0.010
 5717.00    0.46465   0.41812    0.010
 5718.00    0.41952   0.42073    0.010
 5719.00    0.35888   0.42568    0.009
 5720.00    0.29625   0.43527    0.009
 5721.00    0.21867   0.44153    0.009
 5722.00    0.15576   0.44319    0.009
 5723.00    0.17659   0.44403    0.009
 5724.00    0.21265   0.44388    0.009
 5725.00    0.31785   0.44384    0.009
 5726.00    0.41163   0.44525    0.009
 5727.00    0.46292   0.44721    0.009
 5728.00    0.50094   0.44944    0.009
 5729.00    0.49766   0.45157    0.009
 5730.00    0.49292   0.45138    0.009
 5731.00    0.48436   0.44939    0.009
 5732.00    0.48978   0.44666    0.009
 5733.00    0.52693   0.44206    0.009
 5734.00    0.53021   0.43892    0.009
 5735.00    0.46690   0.44035    0.009
 5736.00    0.42236   0.44311    0.009
 5737.00    0.40998   0.44122    0.009
 5738.00    0.40974   0.43669    0.009
 5739.00    0.42774   0.43784    0.009
 5740.00    0.42698   0.44415    0.000
 5741.00    0.40148   0.44866    0.000
 5742.00    0.40971   0.44874    0.000
 5743.00    0.45710   0.44652    0.000
 5744.00    0.50690   0.44432    0.000
 5745.00    0.55916   0.44261    0.000
 5746.00    0.54076   0.44199    0.000
 5747.00    0.45853   0.44222    0.000
 5748.00    0.43033   0.44176    0.000
 5749.00    0.44513   0.44110    0.000
 5750.00    0.42613   0.44122    0.000
 5751.00    0.38345   0.44303    0.000
 5752.00    0.36041   0.44569    0.000
 5753.00    0.34943   0.44465    0.000
 5754.00    0.38932   0.43805    0.000
 5755.00    0.45650   0.43409    0.000
 5756.00    0.50057   0.43888    0.000
 5757.00    0.53388   0.44405    0.000
 5758.00    0.56438   0.44230    0.000
 5759.00    0.59376   0.43409    0.000
 5760.00    0.54540   0.42471    0.000
 5761.00    0.47043   0.42260    0.000
 5762.00    0.42347   0.42975    0.000
 5763.00    0.38458   0.43889    0.000
 5764.00    0.36083   0.44356    0.000
 5765.00    0.34069   0.44387    0.000
 5766.00    0.37052   0.44068    0.000
 5767.00    0.40994   0.43531    0.000
 5768.00    0.49410   0.42840    0.000
 5769.00    0.58492   0.42294    0.000
 5770.00    0.66140   0.42485    0.000
 5771.00    0.73632   0.43381    0.000
 5772.00    0.67391   0.44073    0.000
 5773.00    0.60165   0.44288    0.000
 5774.00    0.48201   0.44250    0.000
 5775.00    0.36063   0.44095    0.000
 5776.00    0.47446   0.43949    0.000
 5777.00    0.58732   0.43848    0.000
 5778.00    0.62972   0.43719    0.000
 5779.00    0.67222   0.43564    0.000
 5780.00    0.71615   0.43500    0.000
 5781.00    0.75383   0.43476    0.000
 5782.00    0.72825   0.43501    0.000
 5783.00    0.69311   0.43732    0.000
 5784.00    0.58868   0.43886    0.000
 5785.00    0.49260   0.43741    0.000
 5786.00    0.44290   0.43239    0.000
 5787.00    0.39556   0.42274    0.000
 5788.00    0.35871   0.41325    0.000
 5789.00    0.35999   0.41269    0.000
 5790.00    0.50017   0.41658    0.000
 5791.00    0.60532   0.41513   -2.000
 5792.00    0.60353   0.41337   -2.000
 5793.00    0.58431   0.41945   -2.000
 5794.00    0.51986   0.42709   -2.000
 5795.00    0.47948   0.43058   -2.000
 5796.00    0.49283   0.43136   -2.000
 5797.00    0.50640   0.42853   -2.000
 5798.00    0.52043   0.42539   -2.000
 5799.00    0.55747   0.42648   -2.000
 5800.00    0.63335   0.43027   -2.000
 5801.00    0.66372   0.43403   -2.000
 5802.00    0.62684   0.43612   -2.000
 5803.00    0.56382   0.43367   -2.000
 5804.00    0.46685   0.42731   -2.000
 5805.00    0.40233   0.42471   -2.000
 5806.00    0.37498   0.43041   -2.000
 5807.00    0.33660   0.43772   -2.000
 5808.00    0.28710   0.44093   -2.000
 5809.00    0.26874   0.44151   -2.000
 5810.00    0.27810   0.43837   -2.000
 5811.00    0.31523   0.43200    0.000
 5812.00    0.37415   0.42807    0.000
 5813.00    0.37916   0.42825    0.000
 5814.00    0.34695   0.43043    0.000
 5815.00    0.30792   0.43221    0.000
 5816.00    0.26476   0.43376    0.000
 5817.00    0.33062   0.43593    0.000
 5818.00    0.45405   0.43728    0.000
 5819.00    0.46771   0.43575    0.000
 5820.00    0.43106   0.43241    0.000
 5821.00    0.43847   0.42924    0.000
 5822.00    0.46327   0.42605    0.000
 5823.00    0.46864   0.42419    0.000
 5824.00    0.46748   0.42750    0.000
 5825.00    0.43460   0.43403    0.000
 5826.00    0.39277   0.43765    0.000
 5827.00    0.36532   0.43824    0.000
 5828.00    0.34121   0.43720    0.000
 5829.00    0.34571   0.43449    0.000
 5830.00    0.35555   0.43245    0.000
 5831.00    0.37489   0.43195    0.000
 5832.00    0.39560   0.43315    0.000
 5833.00    0.40589   0.43476    0.000
 5834.00    0.41509   0.43598    0.000
 5835.00    0.42678   0.43669    0.000
 5836.00    0.43863   0.43643    0.000
 5837.00    0.39139   0.43597    0.000
 5838.00    0.34220   0.43537    0.000
 5839.00    0.26934   0.43511    0.000
 5840.00    0.20090   0.43416    0.000
 5841.00    0.27225   0.43202    0.000
 5842.00    0.33933   0.43127    0.000
 5843.00    0.34186   0.43205    0.000
 5844.00    0.34568   0.43153    0.000
 5845.00    0.36209   0.42938    0.000
 5846.00    0.37723   0.42986    0.000
 5847.00    0.38344   0.43406    0.000
 5848.00    0.38171   0.43764    0.000
 5849.00    0.33711   0.43708    0.000
 5850.00    0.30975   0.43505    0.000
 5851.00    0.35707   0.43219    0.000
 5852.00    0.39048   0.42866    0.000
 5853.00    0.37426   0.42498    0.000
 5854.00    0.34819   0.42313    0.000
 5855.00    0.29263   0.42510    0.000
 5856.00    0.28364   0.42661    0.000
 5857.00    0.39349   0.42592    0.000
 5858.00    0.51015   0.42335    0.000
 5859.00    0.64176   0.41788    0.000
 5860.00    0.70068   0.41245    0.000
 5861.00    0.62117   0.41326    0.000
 5862.00    0.52481   0.41581    0.000
 5863.00    0.40045   0.41165    0.000
 5864.00    0.33644   0.40307    0.000
 5865.00    0.36036   0.40059    0.000
 5866.00    0.40038   0.40702    0.000
 5867.00    0.46102   0.41463    0.000
 5868.00    0.49535   0.41728    0.000
 5869.00    0.49998   0.41573    0.000
 5870.00    0.49969   0.41657    0.000
 5871.00    0.49451   0.41989    0.000
 5872.00    0.51154   0.42025    0.000
 5873.00    0.54806   0.41657    0.000
 5874.00    0.58194   0.41510    0.000
 5875.00    0.61378   0.41978    0.000
 5876.00    0.59173   0.42467    0.000
 5877.00    0.53303   0.42581    0.000
 5878.00    0.43877   0.42461    0.000
 5879.00    0.32332   0.42149    0.000
 5880.00    0.32997   0.41970    0.000
 5881.00    0.40011   0.42006    0.000
 5882.00    0.40257   0.42003    0.000
 5883.00    0.37453   0.41821    0.000
 5884.00    0.34217   0.41648    0.000
 5885.00    0.30815   0.41549    0.000
 5886.00    0.28845   0.41331    0.000
 5887.00    0.27347   0.41060    0.000
 5888.00    0.29135   0.41095    0.000
 5889.00    0.31832   0.41252    0.000
 5890.00    0.32291   0.41087    0.000
 5891.00    0.32242   0.40863    0.000
 5892.00    0.29831   0.40915    0.000
 5893.00    0.26991   0.41033    0.000
 5894.00    0.29232   0.40301    0.000
 5895.00    0.32182   0.37939    0.000
 5896.00    0.35320   0.34285    0.000
 5897.00    0.38476   0.32332    0.000
 5898.00    0.42568   0.34224    0.000
 5899.00    0.46719   0.37077    0.000
 5900.00    0.53227   0.38300    0.000
 5901.00    0.59760   0.37613    0.009
 5902.00    0.51342   0.35161    0.009
 5903.00    0.42875   0.33679    0.009
 5904.00    0.33045   0.35516    0.009
 5905.00    0.23931   0.38159    0.009
 5906.00    0.25021   0.39303    0.009
 5907.00    0.26772   0.39846    0.009
 5908.00    0.34673   0.40425    0.009
 5909.00    0.42336   0.40749    0.009
 5910.00    0.48382   0.40872    0.009
 5911.00    0.52457   0.40919    0.009
 5912.00    0.46166   0.40734    0.009
 5913.00    0.40613   0.40654    0.009
 5914.00    0.38188   0.40834    0.009
 5915.00    0.37709   0.41060    0.009
 5916.00    0.44035   0.40994    0.009
 5917.00    0.49687   0.40999    0.009
 5918.00    0.53361   0.41280    0.009
 5919.00    0.55948   0.41135    0.009
 5920.00    0.55809   0.40347    0.009
 5921.00    0.54225   0.39638    0.009
 5922.00    0.49520   0.39621    0.009
 5923.00    0.48567   0.39918    0.009
 5924.00    0.54649   0.40404    0.009
 5925.00    0.55511   0.40718    0.009
 5926.00    0.47827   0.40775    0.009
 5927.00    0.39646   0.40833    0.009
 5928.00    0.30748   0.40663    0.009
 5929.00    0.25032   0.40496    0.009
 5930.00    0.23331   0.40680    0.009
 5931.00    0.28441   0.40916    0.009
 5932.00    0.41131   0.41025    0.009
 5933.00    0.50237   0.41072    0.009
 5934.00    0.55827   0.40846    0.009
 5935.00    0.56623   0.40470    0.009
 5936.00    0.53269   0.40068    0.009
 5937.00    0.51765   0.39891    0.009
 5938.00    0.51673   0.40386    0.009
 5939.00    0.51817   0.40961    0.009
 5940.00    0.52120   0.40837    0.009
 5941.00    0.49697   0.40247    0.009
 5942.00    0.45673   0.40145    0.009
 5943.00    0.43200   0.40621    0.009
 5944.00    0.41522   0.40967    0.009
 5945.00    0.44918   0.40997    0.009
 5946.00    0.50564   0.40999    0.009
 5947.00    0.53314   0.40770    0.009
 5948.00    0.54961   0.40241    0.009
 5949.00    0.47294   0.40070    0.009
 5950.00    0.36615   0.40286    0.009
 5951.00    0.39658   0.40445    0.009
 5952.00    0.46419   0.40655    0.009
 5953.00    0.50422   0.40859    0.009
 5954.00    0.53813   0.40669    0.009
 5955.00    0.51052   0.40034    0.009
 5956.00    0.47200   0.39662    0.009
 5957.00    0.43103   0.40066    0.009
 5958.00    0.38972   0.40449    0.009
 5959.00    0.30952   0.40090    0.009
 5960.00    0.22558   0.39639    0.009
 5961.00    0.23732   0.40042    0.009
 5962.00    0.25477   0.40438    0.009
 5963.00    0.37349   0.40038    0.009
 5964.00    0.49385   0.39674    0.009
 5965.00    0.46874   0.39820    0.008
 5966.00    0.44326   0.40137    0.008
 5967.00    0.40870   0.40478    0.008
 5968.00    0.37777   0.40793    0.008
 5969.00    0.39575   0.40990    0.008
 5970.00    0.41296   0.40952    0.008
 5971.00    0.42324   0.40813    0.008
 5972.00    0.43250   0.40528    0.008
 5973.00    0.43509   0.40321    0.009
 5974.00    0.43412   0.40480    0.009
 5975.00    0.41494   0.40677    0.009
 5976.00    0.39701   0.40785    0.009
 5977.00    0.38422   0.40895    0.009
 5978.00    0.37202   0.40982    0.009
 5979.00    0.36187   0.40953    0.009
 5980.00    0.34510   0.40833    0.009
 5981.00    0.30925   0.40564    0.009
 5982.00    0.29669   0.40141    0.009
 5983.00    0.34154   0.39725    0.009
 5984.00    0.37226   0.39442    0.009
 5985.00    0.37295   0.39395    0.009
 5986.00    0.36275   0.39747    0.009
 5987.00    0.33249   0.40372    0.009
 5988.00    0.33111   0.40564    0.009
 5989.00    0.37633   0.40242    0.009
 5990.00    0.43157   0.39471    0.009
 5991.00    0.50098   0.38709    0.009
 5992.00    0.55780   0.38806    0.009
 5993.00    0.59893   0.39320    0.009
 5994.00    0.57236   0.39470    0.009
 5995.00    0.47149   0.39647    0.008
 5996.00    0.38898   0.39992    0.008
 5997.00    0.32423   0.40064    0.009
 5998.00    0.28861   0.39767    0.009
 5999.00    0.27785   0.39695    0.008
 6000.00    0.28336   0.40135    0.008
 6001.00    0.30110   0.40571    0.009
 6002.00    0.35858   0.40582    0.009
 6003.00    0.44229   0.40075    0.009
 6004.00    0.44385   0.39400    0.009
 6005.00    0.39791   0.39177    0.009
 6006.00    0.31555   0.39514    0.009
 6007.00    0.21486   0.39862    0.009
 6008.00    0.25365   0.39864    0.009
 6009.00    0.35326   0.39518    0.009
 6010.00    0.44556   0.39267    0.009
 6011.00    0.53512   0.39494    0.009
 6012.00    0.51138   0.39719    0.009
 6013.00    0.45167   0.39434    0.009
 6014.00    0.36787   0.38804    0.015
 6015.00    0.27767   0.38263    0.102
 6016.00    0.22722   0.38567   -1.000
 6017.00    0.18538   0.39487   -1.000
 6018.00    0.18439   0.39916   -1.000
 6019.00    0.19044   0.39519   -1.000
 6020.00    0.21656   0.38888   -1.000
 6021.00    0.24531   0.38931   -1.000
 6022.00    0.28977   0.39318   -1.000
 6023.00    0.33567   0.39120   -1.000
 6024.00    0.35412   0.38872   -1.000
 6025.00    0.37104   0.39159   -1.000
 6026.00    0.36957   0.39156   -1.000
 6027.00    0.36743   0.38676    1.689
 6028.00    0.33823   0.38466    0.017
 6029.00    0.30925   0.38612    0.009
 6030.00    0.28516   0.38782    0.009
 6031.00    0.26466   0.38811    0.009
 6032.00    0.28996   0.39187    0.008
 6033.00    0.31326   0.39444    0.008
 6034.00    0.31925   0.39180    0.008
 6035.00    0.33122   0.39298    0.008
 6036.00    0.38140   0.39686    0.008
 6037.00    0.41466   0.39866    0.009
 6038.00    0.36334   0.39852    0.009
 6039.00    0.32899   0.39903    0.009
 6040.00    0.36337   0.40034    0.009
 6041.00    0.39948   0.40075    0.009
 6042.00    0.44141   0.40058    0.009
 6043.00    0.49130   0.40026    0.009
 6044.00    0.56378   0.40004    0.009
 6045.00    0.61064   0.39950    0.009
 6046.00    0.59545   0.39790    0.009
 6047.00    0.54987   0.39551    0.009
 6048.00    0.44074   0.39417    0.009
 6049.00    0.35219   0.39467    0.009
 6050.00    0.30103   0.39678    0.009
 6051.00    0.28509   0.39859    0.009
 6052.00    0.32511   0.39955    0.009
 6053.00    0.32852   0.39938    0.008
 6054.00    0.28087   0.39943    0.008
 6055.00    0.24219   0.39983    0.008
 6056.00    0.21452   0.39918    0.008
 6057.00    0.22075   0.39986    0.008
 6058.00    0.26367   0.40105    0.009
 6059.00    0.30568   0.39882    0.009
 6060.00    0.34685   0.39469    0.008
 6061.00    0.40478   0.39231    0.008
 6062.00    0.47681   0.39066    0.009
 6063.00    0.50963   0.38846    0.009
 6064.00    0.51340   0.38908    0.009
 6065.00    0.48022   0.39248    0.009
 6066.00    0.42301   0.39574    0.009
 6067.00    0.40479   0.39653    0.009
 6068.00    0.40877   0.39562    0.008
 6069.00    0.40064   0.39360    0.009
 6070.00    0.38650   0.39086    0.009
 6071.00    0.34996   0.38573    0.009
 6072.00    0.30381   0.37810    0.009
 6073.00    0.29739   0.37810    0.009
 6074.00    0.30557   0.38798    0.009
 6075.00    0.33737   0.39574    0.009
 6076.00    0.37652   0.39746    0.009
 6077.00    0.38244   0.39691    0.009
 6078.00    0.37973   0.39706    0.009
 6079.00    0.32686   0.39890    0.009
 6080.00    0.26337   0.39938    0.009
 6081.00    0.29363   0.39909    0.008
 6082.00    0.33957   0.39905    0.008
 6083.00    0.42142   0.39655    0.008
 6084.00    0.50780   0.39160    0.008
 6085.00    0.48008   0.38635    0.008
 6086.00    0.44236   0.38498    0.008
 6087.00    0.36853   0.38757    0.008
 6088.00    0.29283   0.38716    0.008
 6089.00    0.33512   0.38330    0.008
 6090.00    0.37976   0.38241    0.008
 6091.00    0.43813   0.38399    0.008
 6092.00    0.49454   0.38480    0.008
 6093.00    0.50909   0.38597    0.008
 6094.00    0.51861   0.38781    0.009
 6095.00    0.46720   0.38973    0.008
 6096.00    0.42154   0.38821    0.008
 6097.00    0.42356   0.38425    0.008
 6098.00    0.42385   0.38209    0.009
 6099.00    0.41340   0.38276    0.009
 6100.00    0.40521   0.38402    0.009
 6101.00    0.40807   0.38653    0.009
 6102.00    0.40369   0.39072    0.009
 6103.00    0.37066   0.39142    0.009
 6104.00    0.33924   0.38895    0.009
 6105.00    0.31309   0.38762    0.009
 6106.00    0.29106   0.38890    0.009
 6107.00    0.28046   0.39037    0.009
 6108.00    0.29229   0.38450    0.008
 6109.00    0.35754   0.36851    0.008
 6110.00    0.42776   0.35932    0.008
 6111.00    0.50822   0.36929    0.008
 6112.00    0.54857   0.38299    0.008
 6113.00    0.51713   0.38739    0.008
 6114.00    0.48023   0.38516    0.008
 6115.00    0.43475   0.38303    0.008
 6116.00    0.41920   0.38577    0.008
 6117.00    0.44479   0.38873    0.008
 6118.00    0.43459   0.38671    0.008
 6119.00    0.38109   0.38409    0.008
 6120.00    0.32498   0.38577    0.008
 6121.00    0.26609   0.38873    0.008
 6122.00    0.25236   0.38938    0.008
 6123.00    0.28112   0.38650    0.008
 6124.00    0.33090   0.38504    0.009
 6125.00    0.39811   0.38768    0.009
 6126.00    0.39649   0.38701    0.009
 6127.00    0.34461   0.38131    0.009
 6128.00    0.32337   0.37235    0.009
 6129.00    0.32176   0.36411    0.009
 6130.00    0.34096   0.36696    0.009
 6131.00    0.37184   0.37788    0.009
 6132.00    0.37826   0.38236    0.009
 6133.00    0.37276   0.38048    0.009
 6134.00    0.35796   0.37883    0.009
 6135.00    0.33924   0.37702    0.009
 6136.00    0.35037   0.37711    0.009
 6137.00    0.37228   0.38160    0.009
 6138.00    0.38720   0.38493    0.009
 6139.00    0.39999   0.38466    0.009
 6140.00    0.40190   0.38458    0.009
 6141.00    0.40106   0.38309    0.008
 6142.00    0.40296   0.37430    0.008
 6143.00    0.40544   0.35754    0.008
 6144.00    0.43125   0.34376    0.008
 6145.00    0.46085   0.34945    0.008
 6146.00    0.46528   0.36910    0.008
 6147.00    0.46665   0.37863    0.008
 6148.00    0.41873   0.37118    0.008
 6149.00    0.36669   0.36485    0.008
 6150.00    0.32871   0.37127    0.008
 6151.00    0.29141   0.38154    0.008
 6152.00    0.27086   0.38649    0.008
 6153.00    0.25213   0.38484    0.008
 6154.00    0.32385   0.38018    0.009
 6155.00    0.39336   0.37482    0.009
 6156.00    0.41941   0.37109    0.009
 6157.00    0.43842   0.37069    0.009
 6158.00    0.37606   0.37338    0.009
 6159.00    0.32323   0.37721    0.009
 6160.00    0.34663   0.38004    0.009
 6161.00    0.37379   0.37754    0.009
 6162.00    0.42359   0.37265    0.009
 6163.00    0.45616   0.37203    0.009
 6164.00    0.40682   0.37312    0.009
 6165.00    0.36426   0.37354    0.008
 6166.00    0.34793   0.37413    0.009
 6167.00    0.33227   0.36831    0.009
 6168.00    0.31876   0.35226    0.008
 6169.00    0.29899   0.33798    0.008
 6170.00    0.26213   0.33744    0.008
 6171.00    0.23645   0.34745    0.008
 6172.00    0.23692   0.35782    0.008
 6173.00    0.23567   0.36256    0.008
 6174.00    0.23090   0.36591    0.008
 6175.00    0.23773   0.36447    0.008
 6176.00    0.26500   0.35280    0.008
 6177.00    0.29973   0.34489    0.008
 6178.00    0.34594   0.35209    0.008
 6179.00    0.37542   0.36325    0.008
 6180.00    0.38224   0.36648    0.008
 6181.00    0.39460   0.36550    0.008
 6182.00    0.41355   0.36526    0.009
 6183.00    0.40909   0.36498    0.009
 6184.00    0.38000   0.36521    0.009
 6185.00    0.35748   0.36747    0.009
 6186.00    0.34106   0.36911    0.009
 6187.00    0.31640   0.36817    0.009
 6188.00    0.28498   0.36883    0.009
 6189.00    0.26947   0.37182    0.009
 6190.00    0.26540   0.37284    0.009
 6191.00    0.26954   0.37135    0.009
 6192.00    0.27887   0.37030    0.009
 6193.00    0.32423   0.36759    0.008
 6194.00    0.38948   0.36359    0.008
 6195.00    0.64464   0.36185    0.008
 6196.00    0.99100   0.36252   -2.000
 6197.00    1.44368   0.35935   -2.000
 6198.00    1.94043   0.34946   -2.000
 6199.00    2.12838   0.34692   -2.000
 6200.00    2.20688   0.35749   -2.000
 6201.00    1.73058   0.36732   -2.000
 6202.00    1.08826   0.36924   -2.000
 6203.00    0.64795   0.36891   -2.000
 6204.00    0.25782   0.36944   -2.000
 6205.00    0.17083   0.36796   -2.000
 6206.00    0.14488   0.36231   -2.000
 6207.00    0.21888   0.35699   -2.000
 6208.00    0.30865   0.35927    0.009
 6209.00    0.31264   0.36603    0.009
 6210.00    0.30657   0.36986    0.009
 6211.00    0.34223   0.37011    0.009
 6212.00    0.38120   0.36901    0.009
 6213.00    0.42137   0.36909    0.009
 6214.00    0.46159   0.36997    0.009
 6215.00    0.45736   0.37070    0.008
 6216.00    0.45193   0.37037    0.008
 6217.00    0.41306   0.36844    0.008
 6218.00    0.37749   0.36650    0.008
 6219.00    0.40200   0.36387    0.008
 6220.00    0.42459   0.35673    0.008
 6221.00    0.42604   0.34882    0.008
 6222.00    0.42977   0.34550    0.008
 6223.00    0.45108   0.34760    0.008
 6224.00    0.47161   0.35388    0.008
 6225.00    0.48758   0.35785    0.008
 6226.00    0.49836   0.35443    0.008
 6227.00    0.48505   0.34938    0.008
 6228.00    0.47294   0.34996    0.008
 6229.00    0.46542   0.35507    0.008
 6230.00    0.46232   0.35857    0.008
 6231.00    0.47319   0.35785    0.008
 6232.00    0.48282   0.35692    0.008
 6233.00    0.48907   0.35813    0.008
 6234.00    0.47833   0.35962    0.008
 6235.00    0.42847   0.35940    0.008
 6236.00    0.36588   0.35445    0.008
 6237.00    0.27796   0.34449    0.008
 6238.00    0.22597   0.33818    0.008
 6239.00    0.23635   0.34103    0.008
 6240.00    0.27198   0.34700    0.008
 6241.00    0.34598   0.35389    0.009
 6242.00    0.39218   0.36053    0.009
 6243.00    0.40127   0.36208    0.009
 6244.00    0.36080   0.35778    0.009
 6245.00    0.26204   0.35232    0.008
 6246.00    0.24418   0.34848    0.008
 6247.00    0.31021   0.34605    0.008
 6248.00    0.35123   0.34786    0.008
 6249.00    0.36937   0.34991    0.008
 6250.00    0.35337   0.34589    0.008
 6251.00    0.30985   0.34262    0.008
 6252.00    0.32353   0.34202    0.008
 6253.00    0.37776   0.33987    0.008
 6254.00    0.40701   0.34142    0.008
 6255.00    0.42070   0.34839    0.008
 6256.00    0.39603   0.35437    0.008
 6257.00    0.35049   0.35563    0.008
 6258.00    0.46772   0.35254    0.008
 6259.00    0.66186   0.34514    0.009
 6260.00    0.87868   0.33892    0.010
 6261.00    1.10475   0.33847    0.010
 6262.00    1.08165   0.34040    0.011
 6263.00    0.97185   0.34058    0.011
 6264.00    0.74667   0.33822    0.011
 6265.00    0.48765   0.33500    0.011
 6266.00    0.29908   0.33610    0.010
 6267.00    0.12762   0.34222    0.009
 6268.00    0.11538   0.34704    0.009
 6269.00    0.13440   0.35062    0.009
 6270.00    0.19410   0.35542    0.008
 6271.00    0.26004   0.35588    0.008
 6272.00    0.27464   0.35200    0.008
 6273.00    0.28346   0.35058    0.008
 6274.00    0.32187   0.35323    0.008
 6275.00    0.36250   0.35541    0.008
 6276.00    0.32778   0.35367    0.008
 6277.00    0.29004   0.35073    0.008
 6278.00    0.22470   0.35165    0.008
 6279.00    0.16121   0.35508    0.008
 6280.00    0.18031   0.35747    0.000
 6281.00    0.20246   0.35752    0.000
 6282.00    0.27650   0.35594    0.000
 6283.00    0.34402   0.35530    0.000
 6284.00    0.34292   0.35581    0.000
 6285.00    0.33546   0.35423    0.000
 6286.00    0.28051   0.34986    0.000
 6287.00    0.23098   0.34624    0.000
 6288.00    0.21226   0.34631    0.000
 6289.00    0.20060   0.34877    0.000
 6290.00    0.22093   0.35254    0.000
 6291.00    0.23808   0.35535    0.000
 6292.00    0.24344   0.35460    0.000
 6293.00    0.25144   0.35456    0.000
 6294.00    0.26766   0.35775    0.000
 6295.00    0.27363   0.36072    0.000
 6296.00    0.25254   0.36143    0.000
 6297.00    0.23107   0.35888    0.000
 6298.00    0.20877   0.35499    0.000
 6299.00    0.20565   0.35209    0.000
 6300.00    0.24015   0.35153    0.000
 6301.00    0.26101   0.35355    0.000
 6302.00    0.25857   0.35480    0.000
 6303.00    0.25753   0.35173    0.000
 6304.00    0.25860   0.34706    0.000
 6305.00    0.26546   0.34497    0.000
 6306.00    0.27996   0.34635    0.000
 6307.00    0.30199   0.34631    0.000
 6308.00    0.33275   0.34183    0.000
 6309.00    0.33373   0.33866    0.000
 6310.00    0.30426   0.34170    0.000
 6311.00    0.28293   0.34735    0.000
 6312.00    0.26894   0.35020    0.000
 6313.00    0.27934   0.35065    0.000
 6314.00    0.30913   0.35353    0.000
 6315.00    0.32467   0.35736    0.000
 6316.00    0.33026   0.35710    0.000
 6317.00    0.31295   0.35341    0.000
 6318.00    0.28161   0.34990    0.000
 6319.00    0.25719   0.34917    0.000
 6320.00    0.23647   0.35089    0.000
 6321.00    0.23289   0.34967    0.008
 6322.00    0.23726   0.34454    0.008
 6323.00    0.25787   0.34243    0.008
 6324.00    0.28498   0.34297    0.008
 6325.00    0.31016   0.33957    0.008
 6326.00    0.33468   0.33721    0.008
 6327.00    0.34914   0.34184    0.008
 6328.00    0.36072   0.34745    0.008
 6329.00    0.33445   0.34885    0.008
 6330.00    0.29920   0.34890    0.008
 6331.00    0.28263   0.35102    0.008
 6332.00    0.26964   0.35374    0.008
 6333.00    0.28049   0.35418    0.008
 6334.00    0.29487   0.35232    0.008
 6335.00    0.28415   0.35257    0.008
 6336.00    0.27071   0.35483    0.008
 6337.00    0.28579   0.35420    0.008
 6338.00    0.30291   0.35193    0.008
 6339.00    0.29733   0.35249    0.008
 6340.00    0.29093   0.35460    0.008
 6341.00    0.25320   0.35302    0.008
 6342.00    0.21674   0.34524    0.008
 6343.00    0.22888   0.33730    0.008
 6344.00    0.24015   0.33653    0.008
 6345.00    0.23742   0.34103    0.008
 6346.00    0.23733   0.34434    0.008
 6347.00    0.26389   0.34720    0.008
 6348.00    0.28939   0.35072    0.008
 6349.00    0.30730   0.35165    0.008
 6350.00    0.32553   0.34829    0.008
 6351.00    0.34556   0.34316    0.008
 6352.00    0.36373   0.34107    0.008
 6353.00    0.37362   0.34084    0.008
 6354.00    0.37730   0.33976    0.008
 6355.00    0.35840   0.34079    0.008
 6356.00    0.35337   0.34557    0.008
 6357.00    0.39064   0.34968    0.008
 6358.00    0.43497   0.35095    0.008
 6359.00    0.49764   0.35141    0.008
 6360.00    0.53302   0.35068    0.008
 6361.00    0.50765   0.34630    0.008
 6362.00    0.47352   0.34142    0.008
 6363.00    0.42248   0.34120    0.008
 6364.00    0.39084   0.34245    0.008
 6365.00    0.39184   0.33968    0.008
 6366.00    0.39160   0.33557    0.008
 6367.00    0.38952   0.33478    0.008
 6368.00    0.37920   0.33444    0.008
 6369.00    0.35820   0.33180    0.008
 6370.00    0.34961   0.33044    0.008
 6371.00    0.35522   0.33349    0.008
 6372.00    0.33200   0.33827    0.008
 6373.00    0.27973   0.34096    0.008
 6374.00    0.23132   0.34338    0.008
 6375.00    0.18636   0.34656    0.008
 6376.00    0.16541   0.34699    0.008
 6377.00    0.16327   0.34351    0.008
 6378.00    0.14074   0.34061    0.008
 6379.00    0.10417   0.34238    0.008
 6380.00    0.09273   0.34731    0.008
 6381.00    0.09647   0.35091    0.008
 6382.00    0.13342   0.35123    0.008
 6383.00    0.18788   0.35052    0.008
 6384.00    0.23082   0.34991    0.008
 6385.00    0.26850   0.34753    0.008
 6386.00    0.30216   0.34367    0.008
 6387.00    0.33424   0.34103    0.008
 6388.00    0.34935   0.34138    0.008
 6389.00    0.35878   0.34395    0.008
 6390.00    0.33181   0.34576    0.008
 6391.00    0.29460   0.34507    0.008
 6392.00    0.29250   0.34407    0.008
 6393.00    0.29855   0.34444    0.008
 6394.00    0.31314   0.34566    0.009
 6395.00    0.32931   0.34640    0.009
 6396.00    0.34579   0.34629    0.009
 6397.00    0.36231   0.34660    0.009
 6398.00    0.35410   0.34658    0.009
 6399.00    0.34332   0.34264    0.009
 6400.00    0.34225   0.33466    0.008
 6401.00    0.34183   0.32997    0.008
 6402.00    0.32259   0.33435    0.008
 6403.00    0.30274   0.34246    0.008
 6404.00    0.29281   0.34744    0.008
 6405.00    0.28211   0.34737    0.008
 6406.00    0.24750   0.34058    0.008
 6407.00    0.21378   0.33078    0.008
 6408.00    0.19339   0.32938    0.008
 6409.00    0.17748   0.33848    0.008
 6410.00    0.20494   0.34724    0.008
 6411.00    0.22859   0.34980    0.008
 6412.00    0.22562   0.34890    0.008
 6413.00    0.22004   0.34610    0.008
 6414.00    0.20039   0.34107    0.008
 6415.00    0.19066   0.33655    0.008
 6416.00    0.22380   0.33793    0.008
 6417.00    0.25856   0.34233    0.009
 6418.00    0.29906   0.34086    0.008
 6419.00    0.33180   0.33617    0.008
 6420.00    0.34129   0.33655    0.008
 6421.00    0.33587   0.34038    0.008
 6422.00    0.29248   0.34180    0.008
 6423.00    0.26166   0.34128    0.008
 6424.00    0.25838   0.34170    0.008
 6425.00    0.26815   0.34227    0.008
 6426.00    0.30268   0.34069    0.008
 6427.00    0.34277   0.33575    0.008
 6428.00    0.39205   0.33125    0.008
 6429.00    0.42404   0.33400    0.008
 6430.00    0.43088   0.34249    0.008
 6431.00    0.39811   0.34778    0.008
 6432.00    0.31469   0.34728    0.008
 6433.00    0.26534   0.34560    0.008
 6434.00    0.25439   0.34651    0.008
 6435.00    0.27021   0.34859    0.008
 6436.00    0.31264   0.34758    0.008
 6437.00    0.31934   0.34069    0.008
 6438.00    0.29471   0.33131    0.008
 6439.00    0.26670   0.32832    0.008
 6440.00    0.23608   0.33309    0.008
 6441.00    0.23797   0.33954    0.008
 6442.00    0.26193   0.34425    0.008
 6443.00    0.29722   0.34627    0.008
 6444.00    0.33926   0.34459    0.008
 6445.00    0.35299   0.33767    0.008
 6446.00    0.35204   0.32940    0.008
 6447.00    0.35839   0.32956    0.008
 6448.00    0.36802   0.33859    0.008
 6449.00    0.34552   0.34657    0.008
 6450.00    0.31060   0.34887    0.008
 6451.00    0.27112   0.34786    0.008
 6452.00    0.23015   0.34701    0.008
 6453.00    0.21797   0.34781    0.008
 6454.00    0.21373   0.34869    0.008
 6455.00    0.23951   0.34576    0.008
 6456.00    0.27210   0.33522    0.008
 6457.00    0.27122   0.32274    0.008
 6458.00    0.26427   0.32105    0.008
 6459.00    0.25476   0.33060    0.008
 6460.00    0.24489   0.33986    0.008
 6461.00    0.24173   0.34211    0.008
 6462.00    0.23923   0.33752    0.008
 6463.00    0.25459   0.33059    0.008
 6464.00    0.27107   0.32892    0.008
 6465.00    0.30472   0.33439    0.008
 6466.00    0.33882   0.34134    0.008
 6467.00    0.35997   0.34502    0.008
 6468.00    0.38070   0.34278    0.008
 6469.00    0.38969   0.33313    0.008
 6470.00    0.39634   0.32363    0.008
 6471.00    0.36977   0.32519    0.008
 6472.00    0.34738   0.33386    0.008
 6473.00    0.36374   0.34028    0.008
 6474.00    0.38179   0.34361    0.008
 6475.00    0.41132   0.34449    0.008
 6476.00    0.43120   0.34246    0.008
 6477.00    0.40047   0.33897    0.008
 6478.00    0.35817   0.33561    0.008
 6479.00    0.26699   0.33351    0.008
 6480.00    0.19694   0.33455    0.008
 6481.00    0.20059   0.33612    0.008
 6482.00    0.21396   0.33446    0.008
 6483.00    0.25588   0.33325    0.008
 6484.00    0.27856   0.33614    0.008
 6485.00    0.25312   0.33932    0.008
 6486.00    0.23729   0.33943    0.008
 6487.00    0.24218   0.33785    0.008
 6488.00    0.25518   0.33399    0.008
 6489.00    0.28335   0.32713    0.008
 6490.00    0.28652   0.32269    0.008
 6491.00    0.24884   0.32514    0.008
 6492.00    0.21654   0.33071    0.008
 6493.00    0.19197   0.33385    0.008
 6494.00    0.17474   0.33445    0.008
 6495.00    0.16678   0.33474    0.008
 6496.00    0.17402   0.33440    0.008
 6497.00    0.19814   0.33214    0.008
 6498.00    0.22292   0.32839    0.008
 6499.00    0.24832   0.32444    0.008
 6500.00    0.27364   0.31897    0.008
 6501.00    0.29889   0.30868    0.008
 6502.00    0.32761   0.29747    0.008
 6503.00    0.35896   0.29335    0.008
 6504.00    0.35556   0.29677    0.008
 6505.00    0.32891   0.30414    0.008
 6506.00    0.30100   0.31111    0.008
 6507.00    0.27235   0.31576    0.008
 6508.00    0.28350   0.32052    0.008
 6509.00    0.31497   0.32477    0.008
 6510.00    0.31719   0.32729    0.008
 6511.00    0.30645   0.32892    0.008
 6512.00    0.27025   0.33024    0.008
 6513.00    0.22437   0.33156    0.008
 6514.00    0.25320   0.33220    0.008
 6515.00    0.30614   0.33104    0.008
 6516.00    0.33971   0.32883    0.008
 6517.00    0.36805   0.32819    0.008
 6518.00    0.36795   0.32941    0.008
 6519.00    0.36157   0.33004    0.008
 6520.00    0.34796   0.32991    0.008
 6521.00    0.33308   0.32982    0.008
 6522.00    0.32082   0.32744    0.008
 6523.00    0.30892   0.32262    0.008
 6524.00    0.30345   0.31983    0.008
 6525.00    0.29858   0.31984    0.008
 6526.00    0.24228   0.32012    0.008
 6527.00    0.18293   0.32192    0.008
 6528.00    0.11874   0.32600    0.000
 6529.00    0.05502   0.32916    0.000
 6530.00    0.07590   0.32940    0.000
 6531.00    0.09820   0.32874    0.000
 6532.00    0.15648   0.32915    0.000
 6533.00    0.21133   0.32856    0.000
 6534.00    0.22037   0.32555    0.000
 6535.00    0.23041   0.32317    0.000
 6536.00    0.24929   0.32429    0.000
 6537.00    0.25896   0.32740    0.000
 6538.00    0.20816   0.32841    0.000
 6539.00    0.16261   0.32562    0.000
 6540.00    0.14392   0.32208    0.000
 6541.00    0.13170   0.32103    0.000
 6542.00    0.14620   0.32225    0.000
 6543.00    0.16844   0.32395    0.000
 6544.00    0.21712   0.32445    0.000
 6545.00    0.25836   0.32377    0.000
 6546.00    0.27820   0.32391    0.000
 6547.00    0.29596   0.32510    0.000
 6548.00    0.30858   0.32560    0.000
 6549.00    0.31536   0.32390    0.000
 6550.00    0.30973   0.32090    0.000
 6551.00    0.31690   0.31824    0.000
 6552.00    0.34766   0.31475    0.000
 6553.00    0.38052   0.30920    0.000
 6554.00    0.41674   0.30561    0.000
 6555.00    0.41489   0.30770    0.000
 6556.00    0.35927   0.31176    0.000
 6557.00    0.30944   0.31283    0.000
 6558.00    0.26681   0.31022    0.000
 6559.00    0.25317   0.30646    0.000
 6560.00    0.27128   0.30260    0.000
 6561.00    0.27161   0.29826    0.000
 6562.00    0.25474   0.29370    0.000
 6563.00    0.25037   0.28959    0.000
 6564.00    0.25667   0.28694    0.000
 6565.00    0.24998   0.28490    0.000
 6566.00    0.23356   0.28077    0.000
 6567.00    0.20559   0.27370    0.000
 6568.00    0.17001   0.25998    0.000
 6569.00    0.14884   0.23266    0.000
 6570.00    0.13599   0.20295    0.000
 6571.00    0.16369   0.20139    0.000
 6572.00    0.21179   0.23079    0.000
 6573.00    0.25629   0.26044    0.000
 6574.00    0.29921   0.27478    0.000
 6575.00    0.30731   0.28051    0.000
 6576.00    0.30239   0.28341    0.000
 6577.00    0.28845   0.28623    0.000
 6578.00    0.27165   0.29040    0.000
 6579.00    0.27940   0.29374    0.000
 6580.00    0.29364   0.29408    0.000
 6581.00    0.31705   0.29302    0.000
 6582.00    0.34244   0.29344    0.000
 6583.00    0.34782   0.29760    0.000
 6584.00    0.34978   0.30493    0.000
 6585.00    0.27547   0.31136    0.000
 6586.00    0.19125   0.31444    0.000
 6587.00    0.14171   0.31373    0.000
 6588.00    0.09533   0.31084    0.000
 6589.00    0.18307   0.30946    0.000
 6590.00    0.27823   0.31138    0.000
 6591.00    0.29212   0.31390    0.000
 6592.00    0.30363   0.31468    0.000
 6593.00    0.25489   0.31385    0.000
 6594.00    0.20813   0.31319    0.000
 6595.00    0.20666   0.31458    0.000
 6596.00    0.20575   0.31706    0.000
 6597.00    0.21189   0.31887    0.000
 6598.00    0.22263   0.31873    0.000
 6599.00    0.27286   0.31312    0.000
 6600.00    0.32421   0.30355    0.000
 6601.00    0.38272   0.29885    0.000
 6602.00    0.41712   0.30424    0.000
 6603.00    0.33149   0.31310    0.000
 6604.00    0.24852   0.31692    0.000
 6605.00    0.17630   0.31587    0.000
 6606.00    0.11898   0.31422    0.000
 6607.00    0.11154   0.31499    0.000
 6608.00    0.13159   0.31848    0.000
 6609.00    0.22937   0.32097    0.008
 6610.00    0.30807   0.32049    0.008
 6611.00    0.34068   0.31828    0.008
 6612.00    0.34527   0.31567    0.008
 6613.00    0.29142   0.31424    0.008
 6614.00    0.24033   0.31335    0.008
 6615.00    0.19425   0.31218    0.008
 6616.00    0.16168   0.31070    0.007
 6617.00    0.15053   0.31056    0.008
 6618.00    0.15017   0.31468    0.008
 6619.00    0.16480   0.31991    0.008
 6620.00    0.17020   0.32023    0.008
 6621.00    0.16427   0.31720    0.008
 6622.00    0.17776   0.31632    0.008
 6623.00    0.21222   0.31813    0.008
 6624.00    0.24254   0.31923    0.008
 6625.00    0.26890   0.31885    0.008
 6626.00    0.26508   0.31900    0.008
 6627.00    0.23592   0.32034    0.008
 6628.00    0.20837   0.32138    0.008
 6629.00    0.18202   0.32160    0.008
 6630.00    0.15062   0.32040    0.008
 6631.00    0.11595   0.31727    0.008
 6632.00    0.12477   0.31326    0.008
 6633.00    0.15833   0.31093    0.008
 6634.00    0.20329   0.31242    0.008
 6635.00    0.25388   0.31530    0.008
 6636.00    0.26003   0.31662    0.008
 6637.00    0.24717   0.31618    0.008
 6638.00    0.21710   0.31492    0.008
 6639.00    0.18073   0.31330    0.008
 6640.00    0.20024   0.30987    0.008
 6641.00    0.23709   0.30571    0.008
 6642.00    0.24501   0.30565    0.008
 6643.00    0.24543   0.30984    0.008
 6644.00    0.23270   0.31435    0.008
 6645.00    0.21718   0.31604    0.008
 6646.00    0.18779   0.31559    0.008
 6647.00    0.15608   0.31415    0.008
 6648.00    0.14373   0.31399    0.008
 6649.00    0.13382   0.31548    0.008
 6650.00    0.16091   0.31291    0.008
 6651.00    0.19122   0.30775    0.008
 6652.00    0.21361   0.30732    0.008
 6653.00    0.23559   0.31094    0.008
 6654.00    0.27766   0.31319    0.008
 6655.00    0.31923   0.31295    0.008
 6656.00    0.29986   0.31277    0.008
 6657.00    0.28199   0.31401    0.008
 6658.00    0.29597   0.31486    0.008
 6659.00    0.30640   0.31399    0.008
 6660.00    0.27416   0.31240    0.008
 6661.00    0.23904   0.31191    0.008
 6662.00    0.18017   0.31244    0.008
 6663.00    0.13178   0.31320    0.007
 6664.00    0.14810   0.31272    0.007
 6665.00    0.16725   0.31236    0.008
 6666.00    0.20005   0.31250    0.008
 6667.00    0.21909   0.31148    0.008
 6668.00    0.18377   0.30980    0.008
 6669.00    0.16210   0.30785    0.008
 6670.00    0.18522   0.30426    0.008
 6671.00    0.20485   0.30068    0.008
 6672.00    0.21477   0.30163    0.008
 6673.00    0.21636   0.30478    0.008
 6674.00    0.19818   0.30608    0.008
 6675.00    0.18932   0.30598    0.008
 6676.00    0.19959   0.30659    0.008
 6677.00    0.19604   0.30881    0.008
 6678.00    0.16778   0.31115    0.008
 6679.00    0.14895   0.31191    0.008
 6680.00    0.14484   0.31147    0.008
 6681.00    0.15797   0.31130    0.008
 6682.00    0.19474   0.31145    0.008
 6683.00    0.21967   0.31093    0.008
 6684.00    0.23028   0.30631    0.007
 6685.00    0.23656   0.29795    0.008
 6686.00    0.23821   0.29430    0.008
 6687.00    0.25432   0.29914    0.008
 6688.00    0.28401   0.30605    0.008
 6689.00    0.27152   0.30852    0.008
 6690.00    0.22410   0.30819    0.008
 6691.00    0.20969   0.30820    0.008
 6692.00    0.21934   0.30935    0.008
 6693.00    0.23459   0.30919    0.008
 6694.00    0.25343   0.30802    0.008
 6695.00    0.24189   0.30773    0.008
 6696.00    0.21333   0.30825    0.000
 6697.00    0.16045   0.30969    0.000
 6698.00    0.09573   0.31011    0.000
 6699.00    0.04870   0.30938    0.000
 6700.00    0.00912   0.30879    0.000
 6701.00    0.01101   0.30858    0.000
 6702.00    0.02784   0.30769    0.000
 6703.00    0.06148   0.30547    0.000
 6704.00    0.10024   0.30258    0.000
 6705.00    0.17829   0.30196    0.000
 6706.00    0.26628   0.30388    0.000
 6707.00    0.27552   0.30671    0.000
 6708.00    0.26856   0.30895    0.000
 6709.00    0.21569   0.30893    0.000
 6710.00    0.15540   0.30732    0.000
 6711.00    0.14746   0.30456    0.000
 6712.00    0.14586   0.30294    0.000
 6713.00    0.18993   0.30376    0.000
 6714.00    0.23780   0.30500    0.000
 6715.00    0.26789   0.30521    0.000
 6716.00    0.29713   0.30530    0.000
 6717.00    0.29800   0.30531    0.000
 6718.00    0.29977   0.30408    0.000
 6719.00    0.37401   0.30343    0.000
 6720.00    0.44103   0.30355    0.000
 6721.00    0.36734   0.30260    0.000
 6722.00    0.28759   0.30041    0.000
 6723.00    0.13834   0.29761    0.000
 6724.00    0.01240   0.29341    0.000
 6725.00    0.07215   0.28962    0.000
 6726.00    0.14413   0.29144    0.000
 6727.00    0.28945   0.29807    0.000
 6728.00    0.40720   0.30132    0.000
 6729.00    0.39436   0.29947    0.000
 6730.00    0.37528   0.29910    0.000
 6731.00    0.33213   0.30175    0.000
 6732.00    0.30511   0.30297    0.000
 6733.00    0.33002   0.30188    0.000
 6734.00    0.34278   0.30029    0.000
 6735.00    0.32241   0.29973    0.000
 6736.00    0.29284   0.30022    0.000
 6737.00    0.24180   0.30181    0.000
 6738.00    0.20510   0.30360    0.000
 6739.00    0.19736   0.30423    0.000
 6740.00    0.19211   0.30286    0.000
 6741.00    0.19121   0.30126    0.000
 6742.00    0.20907   0.30094    0.000
 6743.00    0.25580   0.30128    0.000
 6744.00    0.28072   0.30235    0.000
 6745.00    0.27615   0.30137    0.000
 6746.00    0.26251   0.29837    0.000
 6747.00    0.23807   0.29760    0.000
 6748.00    0.24352   0.29945    0.000
 6749.00    0.28035   0.29980    0.000
 6750.00    0.32114   0.29767    0.000
 6751.00    0.36559   0.29613    0.000
 6752.00    0.41021   0.29789    0.000
 6753.00    0.45497   0.30041    0.009
 6754.00    0.51070   0.29988    0.009
 6755.00    0.57429   0.29761    0.009
 6756.00    0.56635   0.29582    0.010
 6757.00    0.51332   0.29486    0.010
 6758.00    0.37487   0.29511    0.009
 6759.00    0.18935   0.29700    0.009
 6760.00    0.12551   0.29756    0.009
 6761.00    0.11998   0.29617    0.009
 6762.00    0.15833   0.29658    0.010
 6763.00    0.21485   0.29786    0.010
 6764.00    0.25298   0.29879    0.009
 6765.00    0.28461   0.29992    0.009
 6766.00    0.31420   0.30148    0.009
 6767.00    0.34317   0.30218    0.009
 6768.00    0.42876   0.30220    0.009
 6769.00    0.52838   0.30174    0.009
 6770.00    0.50163   0.30029    0.009
 6771.00    0.44953   0.29991    0.009
 6772.00    0.42628   0.30034    0.008
 6773.00    0.40756   0.29913    0.008
 6774.00    0.40134   0.29591    0.008
 6775.00    0.39657   0.29330    0.008
 6776.00    0.31543   0.29355    0.008
 6777.00    0.22827   0.29579    0.009
 6778.00    0.18564   0.29668    0.009
 6779.00    0.14494   0.29510    0.009
 6780.00    0.14785   0.29518    0.009
 6781.00    0.15217   0.29799    0.009
 6782.00    0.20069   0.30096    0.009
 6783.00    0.24576   0.30209    0.009
 6784.00    0.22857   0.30190    0.009
 6785.00    0.21249   0.30111    0.008
 6786.00    0.20862   0.30137    0.008
 6787.00    0.20495   0.30207    0.008
 6788.00    0.20287   0.30131    0.008
 6789.00    0.20657   0.29931    0.008
 6790.00    0.24397   0.29737    0.008
 6791.00    0.27378   0.29421    0.008
 6792.00    0.26845   0.29103    0.008
 6793.00    0.24309   0.29023    0.008
 6794.00    0.14198   0.29109    0.008
 6795.00    0.07469   0.29329    0.008
 6796.00    0.11420   0.29592    0.008
 6797.00    0.15529   0.29684    0.009
 6798.00    0.20057   0.29588    0.009
 6799.00    0.26490   0.29582    0.009
 6800.00    0.37300   0.29555    0.009
 6801.00    0.44188   0.29328    0.009
 6802.00    0.43277   0.29169    0.009
 6803.00    0.39255   0.29274    0.009
 6804.00    0.29842   0.29388    0.009
 6805.00    0.21538   0.29387    0.009
 6806.00    0.14913   0.29379    0.009
 6807.00    0.13640   0.29435    0.008
 6808.00    0.19497   0.29550    0.008
 6809.00    0.24882   0.29675    0.008
 6810.00    0.29713   0.29713    0.008
 6811.00    0.35563   0.29597    0.008
 6812.00    0.42469   0.29472    0.008
 6813.00    0.44620   0.29513    0.009
 6814.00    0.42431   0.29480    0.009
 6815.00    0.35933   0.29382    0.009
 6816.00    0.25967   0.29456    0.008
 6817.00    0.22927   0.29461    0.008
 6818.00    0.24790   0.29367    0.008
 6819.00    0.29948   0.29442    0.008
 6820.00    0.37152   0.29527    0.009
 6821.00    0.38454   0.29428    0.009
 6822.00    0.36553   0.29202    0.009
 6823.00    0.35377   0.29090    0.009
 6824.00    0.34542   0.29248    0.009
 6825.00    0.32236   0.29465    0.009
 6826.00    0.29332   0.29505    0.009
 6827.00    0.28611   0.29325    0.009
 6828.00    0.28648   0.29162    0.008
 6829.00    0.25313   0.29250    0.008
 6830.00    0.20990   0.29553    0.008
 6831.00    0.15526   0.29744    0.008
 6832.00    0.09785   0.29691    0.008
 6833.00    0.15944   0.29593    0.008
 6834.00    0.24432   0.29525    0.008
 6835.00    0.26043   0.29268    0.008
 6836.00    0.26606   0.28975    0.008
 6837.00    0.29261   0.28963    0.009
 6838.00    0.32151   0.29217    0.009
 6839.00    0.35819   0.29530    0.009
 6840.00    0.39546   0.29470    0.009
 6841.00    0.29947   0.29232    0.009
 6842.00    0.19820   0.29264    0.009
 6843.00    0.23099   0.29376    0.009
 6844.00    0.26439   0.29359    0.008
 6845.00    0.28509   0.29205    0.008
 6846.00    0.29576   0.28924    0.008
 6847.00    0.13680   0.28665    0.008
 6848.00   -0.00311   0.28474    0.000
 6849.00    0.05623   0.28156    0.008
 6850.00    0.12056   0.28054    0.008
 6851.00    0.22191   0.28348    0.008
 6852.00    0.32152   0.28898    0.008
 6853.00    0.41128   0.29259    0.008
 6854.00    0.47049   0.29241    0.008
 6855.00    0.39179   0.29104    0.008
 6856.00    0.32566   0.29078    0.008
 6857.00    0.30609   0.29150    0.008
 6858.00    0.29566   0.29276    0.008
 6859.00    0.31356   0.29275    0.008
 6860.00    0.31231   0.29203    0.009
 6861.00    0.26067   0.29143    0.009
 6862.00    0.22053   0.28813    0.008
 6863.00    0.20641   0.28401    0.008
 6864.00    0.17564   0.28350    0.009
 6865.00    0.11230   0.28537    0.009
 6866.00    0.08837   0.28727    0.009
 6867.00    0.13168   0.28817    0.009
 6868.00    0.15907   0.28604    0.009
 6869.00    0.16264   0.28241    0.009
 6870.00    0.20706   0.28288    0.009
 6871.00    0.30514   0.28699    0.008
 6872.00    0.34542   0.29078    0.008
 6873.00    0.31880   0.29070    0.008
 6874.00    0.27910   0.28820    0.008
 6875.00    0.22604   0.28532    0.008
 6876.00    0.19138   0.28445    0.008
 6877.00    0.17328   0.28646    0.008
 6878.00    0.16122   0.28742    0.008
 6879.00    0.15397   0.28579    0.008
 6880.00    0.16772   0.28390    0.008
 6881.00    0.19613   0.28370    0.008
 6882.00    0.25247   0.28533    0.008
 6883.00    0.32591   0.28620    0.008
 6884.00    0.35245   0.28693    0.009
 6885.00    0.35394   0.28916    0.009
 6886.00    0.31062   0.29150    0.008
 6887.00    0.24651   0.29075    0.008
 6888.00    0.20091   0.28922    0.009
 6889.00    0.16271   0.28648    0.010
 6890.00    0.11867   0.28219    0.010
 6891.00    0.07263   0.28201    0.010
 6892.00    0.04092   0.28529    0.010
 6893.00    0.01332   0.28718    0.009
 6894.00    0.07460   0.28541    0.009
 6895.00    0.15691   0.28465    0.008
 6896.00    0.21541   0.28696    0.008
 6897.00    0.26936   0.28978    0.008
 6898.00    0.28972   0.29257    0.008
 6899.00    0.30512   0.29386    0.008
 6900.00    0.25761   0.29188    0.008
 6901.00    0.20331   0.28978    0.008
 6902.00    0.11485   0.28864    0.008
 6903.00    0.02398   0.28722    0.009
 6904.00   -0.00215   0.28725    0.000
 6905.00   -0.02596   0.28876    0.000
 6906.00    0.07546   0.29017    0.008
 6907.00    0.17459   0.28994    0.008
 6908.00    0.17991   0.28783    0.008
 6909.00    0.18247   0.28689    0.008
 6910.00    0.14125   0.28801    0.008
 6911.00    0.10207   0.28864    0.008
 6912.00    0.08333   0.28858    0.008
 6913.00    0.06571   0.28759    0.008
 6914.00    0.05622   0.28731    0.008
 6915.00    0.05790   0.29003    0.008
 6916.00    0.12118   0.29155    0.008
 6917.00    0.18579   0.29160    0.008
 6918.00    0.25632   0.29078    0.008
 6919.00    0.29589   0.28909    0.008
 6920.00    0.22325   0.28803    0.008
 6921.00    0.16502   0.28561    0.008
 6922.00    0.15056   0.28229    0.008
 6923.00    0.16283   0.28193    0.008
 6924.00    0.24424   0.28301    0.008
 6925.00    0.29410   0.28361    0.009
 6926.00    0.27383   0.28572    0.009
 6927.00    0.26203   0.28770    0.008
 6928.00    0.26658   0.28843    0.008
 6929.00    0.26271   0.28896    0.008
 6930.00    0.24471   0.28885    0.008
 6931.00    0.21060   0.28734    0.008
 6932.00    0.15278   0.28385    0.008
 6933.00    0.11575   0.28108    0.008
 6934.00    0.10564   0.28055    0.008
 6935.00    0.13188   0.28366    0.008
 6936.00    0.19960   0.28698    0.008
 6937.00    0.26538   0.28710    0.008
 6938.00    0.32921   0.28651    0.008
 6939.00    0.34561   0.28571    0.008
 6940.00    0.31993   0.28416    0.009
 6941.00    0.29697   0.28182    0.009
 6942.00    0.27612   0.28290    0.009
 6943.00    0.25762   0.28558    0.008
 6944.00    0.24073   0.28487    0.008
 6945.00    0.25660   0.28322    0.008
 6946.00    0.29221   0.28302    0.009
 6947.00    0.24973   0.28482    0.009
 6948.00    0.16616   0.28665    0.009
 6949.00    0.20522   0.28697    0.009
 6950.00    0.30024   0.28606    0.008
 6951.00    0.32585   0.28369    0.008
 6952.00    0.32419   0.27995    0.008
 6953.00    0.25785   0.27641    0.008
 6954.00    0.16986   0.27749    0.008
 6955.00    0.06313   0.28213    0.008
 6956.00   -0.04888   0.28527    0.000
 6957.00   -0.02389   0.28673    0.000
 6958.00    0.03281   0.28585    0.008
 6959.00    0.04544   0.28207    0.008
 6960.00    0.04988   0.28031    0.008
 6961.00    0.04509   0.28103    0.008
 6962.00    0.03898   0.28077    0.008
 6963.00    0.12404   0.28005    0.008
 6964.00    0.21853   0.28180    0.009
 6965.00    0.24960   0.28352    0.009
 6966.00    0.27645   0.28334    0.009
 6967.00    0.24312   0.28258    0.009
 6968.00    0.20785   0.28290    0.009
 6969.00    0.17026   0.28389    0.009
 6970.00    0.13447   0.28450    0.008
 6971.00    0.15374   0.28505    0.008
 6972.00    0.17282   0.28507    0.008
 6973.00    0.18912   0.28383    0.008
 6974.00    0.20496   0.28193    0.008
 6975.00    0.21636   0.28229    0.008
 6976.00    0.22900   0.28457    0.008
 6977.00    0.25028   0.28549    0.008
 6978.00    0.25792   0.28425    0.008
 6979.00    0.19231   0.28217    0.008
 6980.00    0.13885   0.28283    0.008
 6981.00    0.13770   0.28478    0.008
 6982.00    0.14023   0.28389    0.008
 6983.00    0.15586   0.28047    0.009
 6984.00    0.19055   0.27717    0.009
 6985.00    0.28208   0.27345    0.009
 6986.00    0.32584   0.26854    0.009
 6987.00    0.24826   0.26673    0.009
 6988.00    0.19228   0.27193    0.009
 6989.00    0.18353   0.27877    0.008
 6990.00    0.17934   0.28198    0.008
 6991.00    0.18377   0.28424    0.008
 6992.00    0.21276   0.28550    0.008
 6993.00    0.28238   0.28449    0.008
 6994.00    0.28519   0.28366    0.008
 6995.00    0.19103   0.28392    0.008
 6996.00    0.15406   0.28308    0.008
 6997.00    0.19010   0.28016    0.008
 6998.00    0.21557   0.27924    0.008
 6999.00    0.22914   0.28193    0.009
 7000.00    0.21538   0.28461    0.009
 7001.00    0.17449   0.28389    0.009
 7002.00    0.15927   0.28217    0.009
 7003.00    0.16648   0.28153    0.009
 7004.00    0.19177   0.28212    0.009
 7005.00    0.23100   0.28297    0.009
 7006.00    0.26230   0.28125    0.009
 7007.00    0.28822   0.27734    0.009
 7008.00    0.23258   0.27464    0.009
 7009.00    0.12852   0.27547    0.009
 7010.00    0.18308   0.27822    0.009
 7011.00    0.31980   0.27871    0.009
 7012.00    0.30419   0.27562    0.009
 7013.00    0.22020   0.27312    0.009
 7014.00    0.17313   0.27361    0.008
 7015.00    0.14031   0.27604    0.008
 7016.00    0.16091   0.27869    0.008
 7017.00    0.19903   0.28054    0.009
 7018.00    0.13179   0.28099    0.008
 7019.00    0.03556   0.27959    0.008
 7020.00    0.04979   0.27799    0.008
 7021.00    0.08900   0.27808    0.009
 7022.00    0.13288   0.27806    0.009
 7023.00    0.17761   0.27452    0.009
 7024.00    0.20474   0.26730    0.009
 7025.00    0.22942   0.26484    0.009
 7026.00    0.26184   0.27095    0.009
 7027.00    0.29504   0.27777    0.009
 7028.00    0.23558   0.28028    0.009
 7029.00    0.17031   0.28033    0.009
 7030.00    0.16375   0.27897    0.009
 7031.00    0.15880   0.27601    0.009
 7032.00    0.14089   0.27307    0.009
 7033.00    0.12466   0.27383    0.009
 7034.00    0.15471   0.27681    0.009
 7035.00    0.17915   0.27814    0.008
 7036.00    0.12478   0.27856    0.008
 7037.00    0.07899   0.28039    0.008
 7038.00    0.11223   0.28173    0.009
 7039.00    0.14483   0.28111    0.009
 7040.00    0.17313   0.27950    0.009
 7041.00    0.20199   0.27810    0.009
 7042.00    0.23380   0.27742    0.009
 7043.00    0.28703   0.27836    0.009
 7044.00    0.43048   0.27987    0.009
 7045.00    0.50034   0.27848    0.009
 7046.00    0.31426   0.27295    0.009
 7047.00    0.18632   0.27093    0.009
 7048.00    0.22854   0.27731    0.009
 7049.00    0.27031   0.28530    0.009
 7050.00    0.31094   0.28913   -2.000
 7051.00    0.34175   0.28835   -2.000
 7052.00    0.35146   0.28452   -2.000
 7053.00    0.31875   0.28164   -2.000
 7054.00    0.20682   0.28159   -2.000
 7055.00    0.13734   0.28332   -2.000
 7056.00    0.13711   0.28444   -2.000
 7057.00    0.13520   0.27915   -2.000
 7058.00    0.13091   0.27499   -2.000
 7059.00    0.13097   0.27837   -2.000
 7060.00    0.13652   0.27985   -2.000
 7061.00    0.16733   0.27543   -2.000
 7062.00    0.22614   0.27273   -2.000
 7063.00    0.27024   0.27263   -2.000
 7064.00    0.29996   0.27411   -2.000
 7065.00    0.36341   0.27643   -2.000
 7066.00    0.45597   0.27680   -2.000
 7067.00    0.44555   0.27378   -2.000
 7068.00    0.35689   0.26991   -2.000
 7069.00    0.33963   0.26880   -2.000
 7070.00    0.37004   0.27019   -2.000
 7071.00    0.39452   0.27237   -2.000
 7072.00    0.41554   0.27503   -2.000
 7073.00    0.37627   0.27505   -2.000
 7074.00    0.30627   0.27215   -2.000
 7075.00    0.24849   0.26891   -2.000
 7076.00    0.19610   0.26588   -2.000
 7077.00    0.24698   0.26562   -2.000
 7078.00    0.33703   0.26913   -2.000
 7079.00    0.29639   0.27317   -2.000
 7080.00    0.21366   0.27492   -2.000
 7081.00    0.17383   0.27500   -2.000
 7082.00    0.14555   0.27475   -2.000
 7083.00    0.11825   0.27447   -2.000
 7084.00    0.09118   0.27312   -2.000
 7085.00    0.17293   0.27216   -2.000
 7086.00    0.27381   0.27341   -2.000
 7087.00    0.06434   0.27466   -2.000
 7088.00   -0.18670   0.27507   -2.000
 7089.00   -0.02127   0.27547   -2.000
 7090.00    0.18374   0.27387   -2.000
 7091.00    0.29863   0.26939   -2.000
 7092.00    0.40823   0.26336   -2.000
 7093.00    0.42011   0.26016   -2.000
 7094.00    0.42832   0.26203   -2.000
 7095.00    0.26674   0.26340   -2.000
 7096.00    0.11372   0.26186   -2.000
 7097.00    0.17370   0.25991   -2.000
 7098.00    0.23338   0.25813   -2.000
 7099.00    0.28903   0.25732   -2.000
 7100.00    0.33014   0.25815   -2.000
 7101.00    0.24247   0.25851   -2.000
 7102.00    0.16603   0.25872   -2.000
 7103.00    0.16303   0.25929   -2.000
 7104.00    0.16713   0.25982   -2.000
 7105.00    0.20738   0.25991   -2.000
 7106.00    0.25193   0.26054   -2.000
 7107.00    0.31416   0.26336   -2.000
 7108.00    0.35995   0.26584   -2.000
 7109.00    0.34970   0.26608   -2.000
 7110.00    0.35963   0.26452   -2.000
 7111.00    0.42752   0.26346   -2.000
 7112.00    0.48081   0.26437   -2.000
 7113.00    0.49823   0.26577   -2.000
 7114.00    0.51573   0.26543   -2.000
 7115.00    0.53338   0.26318   -2.000
 7116.00    0.47122   0.26233   -2.000
 7117.00    0.26234   0.26309   -2.000
 7118.00    0.12932   0.26228   -2.000
 7119.00    0.11820   0.25999   -2.000
 7120.00    0.12936   0.25903   -2.000
 7121.00    0.17195   0.26016   -2.000
 7122.00    0.23681   0.26203   -2.000
 7123.00    0.32928   0.26321   -2.000
 7124.00    0.46577   0.26392   -2.000
 7125.00    0.65038   0.26423   -2.000
 7126.00    0.68646   0.26409   -2.000
 7127.00    0.57930   0.26330   -2.000
 7128.00    0.56537   0.26258   -2.000
 7129.00    0.63070   0.26154   -2.000
 7130.00    0.55306   0.26002   -2.000
 7131.00    0.36833   0.26031   -2.000
 7132.00    0.28988   0.26229   -2.000
 7133.00    0.28134   0.26208   -2.000
 7134.00    0.26158   0.25910   -2.000
 7135.00    0.23536   0.25687   -2.000
 7136.00    0.20461   0.25687   -2.000
 7137.00    0.17159   0.25701   -2.000
 7138.00    0.19254   0.25446   -2.000
 7139.00    0.23693   0.25152   -2.000
 7140.00    0.27716   0.25230   -2.000
 7141.00    0.31585   0.25551   -2.000
 7142.00    0.24950   0.25873   -2.000
 7143.00    0.14997   0.26050   -2.000
 7144.00    0.15176   0.26071   -2.000
 7145.00    0.18028   0.26168   -2.000
 7146.00    0.33208   0.26228   -2.000
 7147.00    0.51045   0.26055   -2.000
 7148.00    0.37432   0.25849   -2.000
 7149.00    0.18443   0.25914   -2.000
 7150.00    0.25645   0.26084   -2.000
 7151.00    0.36236   0.26104   -2.000
 7152.00    0.33257   0.26013   -2.000
 7153.00    0.29047   0.25923   -2.000
 7154.00    0.21636   0.25873   -2.000
 7155.00    0.14050   0.25649   -2.000
 7156.00    0.09191   0.25167   -2.000
 7157.00    0.04703   0.24993   -2.000
 7158.00    0.28807   0.25317   -2.000
 7159.00    0.52727   0.25737   -2.000
 7160.00    0.72457   0.26060   -2.000
 7161.00    0.90569   0.26274   -2.000
 7162.00    0.88296   0.26312   -2.000
 7163.00    0.84234   0.26156   -2.000
 7164.00    0.64904   0.26059   -2.000
 7165.00    0.43936   0.26262   -2.000
 7166.00    0.12590   0.26411   -2.000
 7167.00   -0.09207   0.26275   -2.000
 7168.00    0.16405   0.26045   -2.000
 7169.00    0.38823   0.25992   -2.000
 7170.00    0.48385   0.26132   -2.000
 7171.00    0.54558   0.26035   -2.000
 7172.00    0.49407   0.25506   -2.000
 7173.00    0.43984   0.24981   -2.000
 7174.00    0.37795   0.25068   -2.000
 7175.00    0.29894   0.25637   -2.000
 7176.00    0.17867   0.26090   -2.000
 7177.00    0.13740   0.26206   -2.000
 7178.00    0.26065   0.26129   -2.000
 7179.00    0.39835   0.26086   -2.000
 7180.00    0.56221   0.26204   -2.000
 7181.00    0.56101   0.26353   -2.000
 7182.00    0.29855   0.26379   -2.000
 7183.00    0.16856   0.26206   -2.000
 7184.00    0.22259   0.25904   -2.000
 7185.00    0.20985   0.25817   -2.000
 7186.00    0.11546   0.26083   -2.000
 7187.00    0.12539   0.26210   -2.000
 7188.00    0.24778   0.25817   -2.000
 7189.00    0.31033   0.25283   -2.000
 7190.00    0.31599   0.25187   -2.000
 7191.00    0.26558   0.25606   -2.000
 7192.00    0.16815   0.26032   -2.000
 7193.00    0.15913   0.26127   -2.000
 7194.00    0.21536   0.25884   -2.000
 7195.00    0.21517   0.25402   -2.000
 7196.00    0.17840   0.25022   -2.000
 7197.00    0.33595   0.24983   -2.000
 7198.00    0.60374   0.25210   -2.000
 7199.00    0.70587   0.25528   -2.000
 7200.00    0.72618   0.25644   -2.000
 7201.00    0.69009   0.25481   -2.000
 7202.00    0.62992   0.25405   -2.000
 7203.00    0.53501   0.25678   -2.000
 7204.00    0.42740   0.25915   -2.000
 7205.00    0.19189   0.25771   -2.000
 7206.00   -0.08325   0.25597   -2.000
 7207.00   -0.02877   0.25645   -2.000
 7208.00    0.11078   0.25764   -2.000
 7209.00    0.14984   0.25707   -2.000
 7210.00    0.16777   0.25448   -2.000
 7211.00    0.28571   0.25385   -2.000
 7212.00    0.42026   0.25714   -2.000
 7213.00    0.43684   0.26032   -2.000
 7214.00    0.43867   0.25806   -2.000
 7215.00    0.44338   0.25090   -2.000
 7216.00    0.44834   0.24636   -2.000
 7217.00    0.25045   0.24814   -2.000
 7218.00    0.04225   0.25277   -2.000
