###################################################################
## OUTPUT of StarlightChains_v04.for    [Cid@UFSC - 01/Apr/2007] ##
###################################################################

## Some input info
KUG0210-078._55_30.txt                   [arq_obs]
Base.CB07.vall.4m                        [arq_base]
Masks.EmLines.NEW.gm                     [arq_masks]
StCv04.C11.config                        [arq_config]
   66                                    [N_base]
    0                                    [N_YAV_components = # of components with extra extinction!]
    0                                    [i_FitPowerLaw (1/0 = Yes/No)]
-9.99                                    [alpha_PowerLaw]
CCM                                      [red_law_option]
 1.458241                                [q_norm = A(l_norm)/A(V)]

## (Re)Sampling Parameters
 3741.00                                 [l_ini (A)]
 7218.00                                 [l_fin (A)]
    1.00                                 [dl    (A)]     (OBS: dl_cushion =    50.00 A)

## Normalization info
 4020.00                                 [l_norm (A) - for base]
 4010.00                                 [llow_norm (A) - window for f_obs]
 4060.00                                 [lupp_norm (A) - window for f_obs]
8.607603E-18                             [fobs_norm (in input units)]

## S/N
 3691.00                                 [llow_SN (A) - window for S/N]
 7268.00                                 [lupp_SN (A) - window for S/N]
   2.228                                 [S/N in S/N window]
   3.051                                 [S/N in norm. window]
   0.007                                 [S/N_err in S/N window]
   0.010                                 [S/N_err in norm. window]
  1.0000                                 [fscale_chi2]

## etc...
    -2008015                             [idum_orig]
  2352                                   [NOl_eff]
  2238                                   [Nl_eff]
   114    NSIGMA                         [Ntot_cliped & clip_method]
  5670000                                [Nglobal_steps]
   7                                     [N_chains]
  39                                     [NEX0s_base = N_base in EX0s-fits]
 0   0   1      114   2.0   4.050E+03    [Clip-Bug, RC-Crash & Burn-In warning-flags, n_censored_weights, wei_nsig_threshold & wei_limit]
    46     45.962     45.224      0.738  [idt_all, wdt_TotTime, wdt_UsrTime & wdt_SysTime (sec)]

## Synthesis Results - Best model ##

 1.88456E-05                             [chi2/Nl_eff]
    35.57677                             [adev (%)]

   127.10545                             [sum-of-x (%)]
 2.85595E-18                             [Flux_tot (units of input spectrum!)]
 5.55195E-14                             [Mini_tot (???)]
 2.87827E-14                             [Mcor_tot (???)]

-324.83                                  [v0_min  (km/s)]
 254.33                                  [vd_min  (km/s)]
-1.0000                                  [AV_min  (mag)]
 0.0000                                  [YAV_min (mag)]

# j     x_j(%)      Mini_j(%)     Mcor_j(%)     age_j(yr)     Z_j      (L/M)_j    YAV?  Mstars   component_j        a/Fe...       SSP_chi2r SSP_adev(%)   SSP_AV   SSP_x(%)
  1      0.0000     0.0000E+00    0.0000E+00    1.000000E+06  0.00400  1.094E-02    0   1.0000   age020_m42            0.0000     1.9004E-05    34.2657   1.5809   118.0215
  2      0.0000     0.0000E+00    0.0000E+00    3.160000E+06  0.00400  4.007E-02    0   0.9999   age045_m42            0.0000     1.9301E-05    34.8780   0.9332   121.8648
  3      0.0000     0.0000E+00    0.0000E+00    5.010000E+06  0.00400  2.539E-02    0   0.9488   age055_m42            0.0000     1.9051E-05    34.5796   1.2209   120.6643
  4      0.0000     0.0000E+00    0.0000E+00    6.610000E+06  0.00400  2.620E-02    0   0.9220   age061_m42            0.0000     1.9168E-05    34.9560   0.8720   121.7376
  5      0.0000     0.0000E+00    0.0000E+00    1.000000E+07  0.00400  1.322E-02    0   0.8862   age070_m42            0.0000     1.9174E-05    35.9131   0.6403   122.9580
  6      0.0000     0.0000E+00    0.0000E+00    1.445000E+07  0.00400  7.883E-03    0   0.8571   age078_m42            0.0000     1.9062E-05    35.5060   0.9341   121.3198
  7      0.1332     1.0265E-03    1.6184E-03    2.512000E+07  0.00400  5.251E-03    0   0.8174   age090_m42            0.0000     1.9170E-05    36.1479   0.5256   123.0622
  8      0.0000     0.0000E+00    0.0000E+00    4.000000E+07  0.00400  3.649E-03    0   0.7851   age104_m42            0.0000     1.9199E-05    36.1485   0.3023   123.6190
  9      0.0000     0.0000E+00    0.0000E+00    5.500000E+07  0.00400  3.098E-03    0   0.7629   age110_m42            0.0000     1.9307E-05    35.8114   0.4483   123.5846
 10      0.1977     3.5908E-03    4.9918E-03    1.015200E+08  0.00400  2.228E-03    0   0.7207   age116_m42            0.0000     1.9352E-05    35.5918   0.4626   123.6702
 11      0.0000     0.0000E+00    0.0000E+00    2.861200E+08  0.00400  1.093E-03    0   0.6648   age125_m42            0.0000     1.9456E-05    36.5044  -0.0663   125.3740
 12      0.0005     2.8003E-05    3.4380E-05    5.088000E+08  0.00400  6.597E-04    0   0.6365   age130_m42            0.0000     1.9553E-05    36.1104  -0.0870   126.4085
 13      0.0000     0.0000E+00    0.0000E+00    1.434000E+09  0.00400  2.132E-04    0   0.5798   age139_m42            0.0000     1.9326E-05    36.4221  -1.0000   127.4218
 14      7.4221     5.0955E+00    5.2849E+00    4.250000E+09  0.00400  5.895E-05    0   0.5377   age158_m42            0.0000     2.0194E-05    44.2970  -1.0000   115.7538
 15     18.6814     2.1540E+01    2.1655E+01    7.500000E+09  0.00400  3.510E-05    0   0.5212   age171_m42            0.0000     2.1479E-05    48.9412  -1.0000   110.9774
 16      8.9558     1.8077E+01    1.7553E+01    1.300000E+10  0.00400  2.005E-05    0   0.5034   age193_m42            0.0000     2.3022E-05    53.1376  -1.0000   106.5516
 17      0.0000     0.0000E+00    0.0000E+00    1.800000E+10  0.00400  1.525E-05    0   0.4967   age213_m42            0.0000     2.3212E-05    53.8571  -1.0000   105.6015
 18      1.9346     6.3242E-03    1.2199E-02    1.000000E+06  0.00800  1.238E-02    0   1.0000   age020_m52            0.0000     1.9045E-05    34.2710   1.5735   118.3348
 19      0.0253     3.3287E-05    6.3990E-05    3.160000E+06  0.00800  3.074E-02    0   0.9966   age045_m52            0.0000     1.9049E-05    34.2742   1.5004   119.1836
 20      0.0000     0.0000E+00    0.0000E+00    5.010000E+06  0.00800  2.668E-02    0   0.9443   age055_m52            0.0000     1.9008E-05    34.5047   1.2940   120.1472
 21      0.0000     0.0000E+00    0.0000E+00    6.610000E+06  0.00800  2.136E-02    0   0.9177   age061_m52            0.0000     1.9042E-05    35.7334   0.1230   124.9827
 22      3.8563     1.2845E-02    2.1871E-02    1.000000E+07  0.00800  1.215E-02    0   0.8827   age070_m52            0.0000     1.9180E-05    36.1738   0.8189   123.0136
 23      0.0000     0.0000E+00    0.0000E+00    1.445000E+07  0.00800  8.717E-03    0   0.8552   age078_m52            0.0000     1.9113E-05    35.6893   0.9135   122.4675
 24      0.3988     2.8860E-03    4.5436E-03    2.512000E+07  0.00800  5.592E-03    0   0.8162   age090_m52            0.0000     1.9224E-05    36.3391   0.5951   124.2315
 25      0.0000     0.0000E+00    0.0000E+00    4.000000E+07  0.00800  3.896E-03    0   0.7841   age104_m52            0.0000     1.9235E-05    36.2665   0.5103   124.6932
 26      5.5030     1.0368E-01    1.4452E-01    1.015200E+08  0.00800  2.148E-03    0   0.7226   age116_m52            0.0000     1.9162E-05    35.7953   0.4395   124.3835
 27      0.7155     2.9177E-02    3.7612E-02    2.861200E+08  0.00800  9.925E-04    0   0.6683   age125_m52            0.0000     1.9478E-05    36.0734  -0.0188   127.4624
 28      0.0000     0.0000E+00    0.0000E+00    9.047900E+08  0.00800  3.141E-04    0   0.6138   age135_m52            0.0000     1.9721E-05    35.8793  -0.8441   132.5640
 29      2.5482     5.9993E-01    6.7732E-01    1.434000E+09  0.00800  1.719E-04    0   0.5853   age139_m52            0.0000     1.9877E-05    42.0254  -1.0000   122.6953
 30      0.0000     0.0000E+00    0.0000E+00    2.500000E+09  0.00800  7.872E-05    0   0.5600   age150_m52            0.0000     2.1502E-05    48.2760  -1.0000   114.3605
 31      0.0000     0.0000E+00    0.0000E+00    4.250000E+09  0.00800  4.336E-05    0   0.5426   age158_m52            0.0000     2.1635E-05    48.7074  -1.0000   113.0898
 32      0.0000     0.0000E+00    0.0000E+00    6.250000E+09  0.00800  3.159E-05    0   0.5319   age166_m52            0.0000     2.3563E-05    53.6556  -1.0000   108.1921
 33      0.0000     0.0000E+00    0.0000E+00    1.300000E+10  0.00800  1.361E-05    0   0.5073   age193_m52            0.0000     2.9595E-05    64.6721  -1.0000    95.1673
 34      0.1451     5.9401E-01    5.7175E-01    1.800000E+10  0.00800  9.886E-06    0   0.4990   age213_m52            0.0000     3.1653E-05    66.6315  -1.0000    91.6418
 35      0.0038     9.8583E-06    1.9016E-05    1.000000E+06  0.02000  1.544E-02    0   1.0000   age020_m62            0.0000     1.9091E-05    34.3107   1.5685   118.7090
 36      0.0000     0.0000E+00    0.0000E+00    3.160000E+06  0.02000  3.762E-02    0   0.9858   age045_m62            0.0000     1.9128E-05    34.3141   1.5050   119.8257
 37      4.6879     5.7562E-03    1.0373E-02    5.010000E+06  0.02000  3.296E-02    0   0.9342   age055_m62            0.0000     1.9111E-05    34.6123   1.1885   121.6432
 38      0.2568     9.0064E-04    1.5394E-03    8.710000E+06  0.02000  1.154E-02    0   0.8861   age067_m62            0.0000     1.9505E-05    38.7908   0.3297   125.4122
 39      0.0000     0.0000E+00    0.0000E+00    1.445000E+07  0.02000  7.663E-03    0   0.8472   age078_m62            0.0000     1.9282E-05    37.1039   0.4839   125.1230
 40     10.6039     9.4693E-02    1.4793E-01    2.512000E+07  0.02000  4.532E-03    0   0.8099   age090_m62            0.0000     1.9193E-05    37.3296   0.4902   124.2443
 41      0.0000     0.0000E+00    0.0000E+00    5.500000E+07  0.02000  2.733E-03    0   0.7595   age110_m62            0.0000     1.9071E-05    36.1393   0.4838   124.2576
 42      0.3023     8.9376E-03    1.2042E-02    1.609000E+08  0.02000  1.369E-03    0   0.6985   age120_m62            0.0000     1.9325E-05    35.9760   0.3393   126.2113
 43      0.0139     6.2577E-04    8.1042E-04    2.861200E+08  0.02000  9.013E-04    0   0.6714   age125_m62            0.0000     1.9623E-05    36.0494   0.1034   128.7161
 44      0.0000     0.0000E+00    0.0000E+00    5.088000E+08  0.02000  5.028E-04    0   0.6449   age130_m62            0.0000     2.0033E-05    35.7266  -0.3011   132.1653
 45      0.0000     0.0000E+00    0.0000E+00    9.047900E+08  0.02000  2.428E-04    0   0.6179   age135_m62            0.0000     1.9414E-05    35.1516  -0.9474   133.3111
 46      0.0000     0.0000E+00    0.0000E+00    1.434000E+09  0.02000  1.263E-04    0   0.5908   age139_m62            0.0000     1.9741E-05    39.9436  -1.0000   124.8445
 47      0.0000     0.0000E+00    0.0000E+00    2.500000E+09  0.02000  5.985E-05    0   0.5673   age150_m62            0.0000     2.1933E-05    48.4983  -1.0000   115.5239
 48      0.0000     0.0000E+00    0.0000E+00    4.250000E+09  0.02000  3.271E-05    0   0.5468   age158_m62            0.0000     2.5060E-05    55.7474  -1.0000   106.9656
 49      3.2439     9.6532E+00    9.6211E+00    1.000000E+10  0.02000  1.360E-05    0   0.5167   age181_m62            0.0000     3.0131E-05    63.3796  -1.0000    96.9880
 50      0.0000     0.0000E+00    0.0000E+00    1.800000E+10  0.02000  7.124E-06    0   0.5013   age213_m62            0.0000     3.4096E-05    67.3011  -1.0000    90.2010
 51      0.0000     0.0000E+00    0.0000E+00    1.000000E+06  0.05000  2.592E-02    0   0.9998   age020_m72            0.0000     1.9131E-05    34.2974   1.5521   119.1167
 52      0.0000     0.0000E+00    0.0000E+00    3.160000E+06  0.05000  4.845E-02    0   0.9577   age045_m72            0.0000     1.9012E-05    34.3113   1.4050   120.4113
 53      0.0000     0.0000E+00    0.0000E+00    5.010000E+06  0.05000  3.072E-02    0   0.9147   age055_m72            0.0000     1.9163E-05    36.0808   1.0011   122.8748
 54      0.8461     2.3535E-03    4.0299E-03    6.610000E+06  0.05000  1.455E-02    0   0.8877   age061_m72            0.0000     1.9986E-05    41.0492   0.3771   125.9907
 55      0.0000     0.0000E+00    0.0000E+00    1.000000E+07  0.05000  9.074E-03    0   0.8524   age070_m72            0.0000     1.9282E-05    36.5959   1.1729   122.4890
 56     10.2630     9.7729E-02    1.4896E-01    2.512000E+07  0.05000  4.250E-03    0   0.7902   age090_m72            0.0000     1.9135E-05    36.5877   0.9208   122.8006
 57     13.3783     1.7539E-01    2.5773E-01    4.000000E+07  0.05000  3.087E-03    0   0.7618   age104_m72            0.0000     1.9204E-05    37.0326   0.7207   123.6506
 58      0.6981     1.6620E-02    2.2749E-02    1.015200E+08  0.05000  1.700E-03    0   0.7096   age116_m72            0.0000     1.9308E-05    36.3342   0.4869   125.6335
 59      0.0000     0.0000E+00    0.0000E+00    2.861200E+08  0.05000  7.384E-04    0   0.6633   age125_m72            0.0000     1.9764E-05    35.7714  -0.0475   130.6760
 60      0.0000     0.0000E+00    0.0000E+00    5.088000E+08  0.05000  3.819E-04    0   0.6372   age130_m72            0.0000     1.9625E-05    35.1306  -0.5901   134.2018
 61     25.8983     6.2537E+00    7.3704E+00    9.047900E+08  0.05000  1.676E-04    0   0.6110   age135_m72            0.0000     1.9692E-05    37.9891  -1.0000   127.9644
 62      0.0000     0.0000E+00    0.0000E+00    1.434000E+09  0.05000  8.837E-05    0   0.5874   age139_m72            0.0000     2.2051E-05    48.3470  -1.0000   117.1973
 63      0.0000     0.0000E+00    0.0000E+00    2.500000E+09  0.05000  4.233E-05    0   0.5598   age150_m72            0.0000     2.5288E-05    55.6005  -1.0000   107.9391
 64      2.9697     8.3753E+00    8.4799E+00    6.250000E+09  0.05000  1.435E-05    0   0.5249   age166_m72            0.0000     3.1912E-05    65.3164  -1.0000    93.8792
 65      0.4929     3.0628E+00    2.9752E+00    1.300000E+10  0.05000  6.513E-06    0   0.5036   age193_m72            0.0000     3.7473E-05    70.1637  -1.0000    86.4501
 66      2.9291     2.6186E+01    2.4977E+01    1.800000E+10  0.05000  4.527E-06    0   0.4945   age213_m72            0.0000     4.1159E-05    72.3909  -1.0000    81.3835


## Synthesis Results - Average & Chains ##

# j      x_j: min, <> & last-chain-values for 1 ...  7 chains
  1      0.0000      0.1763      1.4035      0.0000      0.4040      0.1589      0.7071      0.0000      0.0000
  2      0.0000      0.1458      0.1862      0.0000      0.1121      0.3308      0.3429      0.2132      0.5247
  3      0.0000      0.1901      0.0000      0.9716      0.1617      0.9998      0.0000      0.1454      1.2080
  4      0.0000      0.1254      0.4105      0.1696      0.1407      0.5593      0.0000      0.2062      0.2313
  5      0.0000      0.1210      0.4365      0.5814      0.0910      0.1717      0.0000      0.2840      0.1606
  6      0.0000      0.1375      0.8020      0.4811      0.0000      0.0000      0.0000      0.4984      0.1751
  7      0.1332      0.1120      0.1120      0.0404      0.5524      0.5973      0.2495      0.6188      0.2175
  8      0.0000      0.1398      0.0000      0.2915      0.4382      0.0000      0.4653      0.0759      0.0000
  9      0.0000      0.1086      0.2345      0.4982      0.0069      0.0000      0.3995      0.6138      0.1903
 10      0.1977      0.1970      0.7774      0.0816      0.2828      1.2705      0.5277      0.3644      0.0000
 11      0.0000      0.1258      0.3630      0.2952      0.0000      0.3066      0.0000      0.0144      0.4768
 12      0.0005      0.1648      0.3762      0.3234      0.3563      0.3035      0.6006      0.0000      0.6805
 13      0.0000      0.1017      0.0554      0.1625      0.4754      0.1349      0.3073      0.2317      0.0576
 14      7.4221      0.1510      0.3325      0.3573      0.1087      0.3928      0.7402      1.0878      0.8862
 15     18.6814      0.1410      0.1546      0.0020      0.1561      0.5995      0.2643      0.0120      0.4846
 16      8.9558     10.3990     10.2182      9.8651      9.7623      9.8791      9.7822      9.4245     10.1782
 17      0.0000     10.7887      8.2249      9.7808     11.0548      9.8257      9.3615     10.5276      9.4195
 18      1.9346      0.1733      0.0716      0.5353      1.5257      0.5902      0.6668      0.0000      0.0000
 19      0.0253      0.1585      0.2306      0.3840      0.6362      0.6001      0.6973      0.2355      0.0252
 20      0.0000      0.0949      0.8174      0.0318      0.2324      0.0000      0.3680      0.3777      0.0136
 21      0.0000      0.2331      0.1138      0.0000      0.9325      0.2496      0.1620      0.2915      1.1385
 22      3.8563      0.1482      0.1333      0.9152      0.2911      0.5300      0.8412      0.0000      0.3152
 23      0.0000      0.2212      0.6083      0.3892      0.0250      0.4784      1.0280      0.6189      0.0000
 24      0.3988      0.1836      0.3192      0.4654      0.4772      0.4032      0.0909      0.1563      0.3871
 25      0.0000      0.1779      0.7548      0.6161      0.5388      0.0000      0.0000      0.2112      1.1497
 26      5.5030      0.1210      0.1368      0.0000      0.0527      0.5208      0.1295      0.5299      0.0000
 27      0.7155      0.1382      0.0000      0.1844      0.3813      0.5556      0.6602      0.0000      0.2665
 28      0.0000      0.1182      0.0000      0.0000      0.0000      0.0000      0.1061      0.2428      0.2786
 29      2.5482      0.1186      0.0260      0.0520      0.7675      0.3781      0.1457      0.0000      0.2265
 30      0.0000      0.1403      0.2060      0.3622      0.9439      0.0000      0.5082      0.4885      0.6343
 31      0.0000      0.1171      0.0000      0.0117      0.1595      0.0000      0.0661      0.0000      0.1728
 32      0.0000      0.1283      0.4675      0.1713      0.2831      0.2319      0.2484      0.9334      0.0965
 33      0.0000      0.1520      0.1444      0.9912      0.5753      0.1060      0.6327      0.3238      0.4494
 34      0.1451     76.9513     69.6852     69.2733     68.0118     63.7588     64.3698     66.8865     65.9024
 35      0.0038      0.1577      0.5157      0.5642      0.4204      0.2925      0.3298      0.6429      0.0402
 36      0.0000      0.1380      0.1050      0.0000      0.1254      0.8697      0.1282      0.1549      0.1299
 37      4.6879      0.1661      0.0294      0.3238      0.1378      0.4707      0.7791      0.3820      0.4088
 38      0.2568      0.1249      0.5275      0.0476      0.3269      0.5077      0.2443      0.3762      0.0000
 39      0.0000      0.0830      0.0696      0.4798      0.2303      0.0000      0.1667      0.4202      0.1003
 40     10.6039      0.1787      0.0000      0.7850      0.0000      0.8042      0.3122      0.1649      0.5114
 41      0.0000      0.1592      0.0000      0.7049      0.1783      0.1449      0.6012      1.3405      0.0000
 42      0.3023      0.1946      0.0811      0.0960      0.3989      0.6469      0.0724      0.5695      0.5855
 43      0.0139      0.1248      0.0762      0.0000      0.0141      1.0660      0.4212      0.0000      0.6520
 44      0.0000      0.1837      0.2805      0.6337      0.2219      0.1984      0.3117      0.0270      0.2927
 45      0.0000      0.1615      0.6796      1.0177      0.5143      0.3120      1.4788      0.0000      0.6947
 46      0.0000      0.1847      0.3233      0.1120      0.3314      0.0000      1.0084      0.3178      0.8807
 47      0.0000      0.1537      0.2712      0.5788      0.0850      0.0000      0.0000      1.3234      0.4985
 48      0.0000      0.1242      0.9431      0.0000      0.3430      0.1162      0.0000      0.2842      0.1228
 49      3.2439      0.1086      0.4759      0.0831      0.3042      0.3582      0.0632      0.2836      1.0410
 50      0.0000      0.1216      0.5829      0.0000      0.0000      0.0000      0.0000      0.0000      0.1476
 51      0.0000      0.1703      0.4198      0.5390      0.1469      0.7702      0.5867      0.3506      0.1127
 52      0.0000      0.1467      0.4461      0.7507      0.0000      0.0000      0.1903      0.6612      0.2823
 53      0.0000      0.1310      0.4367      0.2296      0.2963      0.0099      0.5649      0.0496      0.0000
 54      0.8461      0.1879      0.1573      0.2330      0.0000      0.5535      0.0000      0.8680      0.2916
 55      0.0000      0.1704      0.0000      0.0000      0.0736      0.2729      1.3216      0.0309      0.0000
 56     10.2630      0.2176      1.2582      0.5138      0.0000      0.6336      0.3964      0.6414      0.6583
 57     13.3783      0.2202      1.1189      0.2379      1.5843      1.5632      0.7820      2.1600      0.3486
 58      0.6981      0.1249      0.0536      0.0235      0.2093      0.4892      0.3000      0.5095      0.4975
 59      0.0000      0.0878      0.1936      0.4538      0.3372      0.0858      0.2278      0.0000      0.1516
 60      0.0000      0.1745      0.0000      0.1981      0.5607      0.4909      0.4332      0.0000      1.2564
 61     25.8983      0.1485      0.2897      0.0000      0.1910      0.3616      0.3771      0.0000      0.1003
 62      0.0000      0.1414      0.5606      0.0000      0.5089      0.0000      0.2595      0.1718      0.4009
 63      0.0000      0.1373      0.0000      0.0487      0.0262      0.2223      0.4526      0.1045      0.0000
 64      2.9697      0.1450      0.0000      0.0000      0.1015      1.1289      0.8325      0.0000      0.0000
 65      0.4929      0.1531      0.0000      0.4158      0.2321      0.2765      0.2339      0.0000      0.5460
 66      2.9291      0.1328      0.0187      0.1817      0.1574      0.6244      0.1938      0.0923      0.7936

# j      m_j: min, <> & last-chain-values for 1 ...  7 chains
  1  0.0000E+00  3.5296E-04  3.0894E-03  0.0000E+00  8.9019E-04  3.6639E-04  1.6414E-03  0.0000E+00  0.0000E+00
  2  0.0000E+00  7.9684E-05  1.1188E-04  0.0000E+00  6.7452E-05  2.0818E-04  2.1728E-04  1.3159E-04  3.1698E-04
  3  0.0000E+00  1.5559E-04  0.0000E+00  8.6915E-04  1.4567E-04  9.4228E-04  0.0000E+00  1.3435E-04  1.0928E-03
  4  0.0000E+00  9.6658E-05  3.4785E-04  1.4288E-04  1.1934E-04  4.9638E-04  0.0000E+00  1.7951E-04  1.9701E-04
  5  0.0000E+00  1.7759E-04  7.0472E-04  9.3304E-04  1.4708E-04  2.9036E-04  0.0000E+00  4.7095E-04  2.6059E-04
  6  0.0000E+00  3.2750E-04  2.1001E-03  1.2522E-03  0.0000E+00  0.0000E+00  0.0000E+00  1.3404E-03  4.6086E-04
  7  1.6184E-03  3.8198E-04  4.1978E-04  1.5067E-04  2.0729E-03  2.3451E-03  9.8621E-04  2.3824E-03  8.1972E-04
  8  0.0000E+00  6.5882E-04  0.0000E+00  1.5012E-03  2.2731E-03  0.0000E+00  2.5421E-03  4.0392E-04  0.0000E+00
  9  0.0000E+00  5.8592E-04  1.3910E-03  2.9368E-03  4.0756E-05  0.0000E+00  2.4984E-03  3.7385E-03  1.1344E-03
 10  4.9918E-03  1.3958E-03  6.0557E-03  6.3163E-04  2.2057E-03  1.0365E-02  4.3345E-03  2.9157E-03  0.0000E+00
 11  0.0000E+00  1.6755E-03  5.3164E-03  4.2984E-03  0.0000E+00  4.7040E-03  0.0000E+00  2.1604E-04  7.0208E-03
 12  3.4380E-05  3.4824E-03  8.7402E-03  7.4692E-03  8.2879E-03  7.3848E-03  1.4715E-02  0.0000E+00  1.5895E-02
 13  0.0000E+00  6.0554E-03  3.6250E-03  1.0578E-02  3.1165E-02  9.2538E-03  2.1219E-02  1.5585E-02  3.7935E-03
 14  5.2849E+00  3.0169E-02  7.3033E-02  7.8010E-02  2.3910E-02  9.0363E-02  1.7144E-01  2.4542E-01  1.9569E-01
 15  2.1655E+01  4.5875E-02  5.5267E-02  7.1060E-04  5.5895E-02  2.2450E-01  9.9643E-02  4.4055E-03  1.7419E-01
 16  1.7553E+01  5.7187E+00  6.1783E+00  5.9293E+00  5.9087E+00  6.2557E+00  6.2367E+00  5.8528E+00  6.1864E+00
 17  0.0000E+00  7.6967E+00  6.4513E+00  7.6261E+00  8.6799E+00  8.0714E+00  7.7426E+00  8.4813E+00  7.4272E+00
 18  1.2199E-02  3.0658E-04  1.3933E-04  1.0350E-03  2.9708E-03  1.2024E-03  1.3678E-03  0.0000E+00  0.0000E+00
 19  6.3990E-05  1.1259E-04  1.8001E-04  2.9804E-04  4.9724E-04  4.9068E-04  5.7402E-04  1.8888E-04  1.9739E-05
 20  0.0000E+00  7.3569E-05  6.9672E-04  2.6966E-05  1.9828E-04  0.0000E+00  3.3072E-04  3.3063E-04  1.1611E-05
 21  0.0000E+00  2.1936E-04  1.1770E-04  0.0000E+00  9.6582E-04  2.7046E-04  1.7670E-04  3.0977E-04  1.1842E-03
 22  2.1871E-02  2.3590E-04  2.3330E-04  1.5918E-03  5.0978E-04  9.7116E-04  1.5518E-03  0.0000E+00  5.5428E-04
 23  0.0000E+00  4.7536E-04  1.4371E-03  9.1400E-04  5.9012E-05  1.1838E-03  2.5610E-03  1.5018E-03  0.0000E+00
 24  4.5436E-03  5.8710E-04  1.1220E-03  1.6260E-03  1.6791E-03  1.4843E-03  3.3672E-04  5.6433E-04  1.3679E-03
 25  0.0000E+00  7.8409E-04  3.6583E-03  2.9683E-03  2.6143E-03  0.0000E+00  0.0000E+00  1.0514E-03  5.6016E-03
 26  1.4452E-01  8.9164E-04  1.1086E-03  0.0000E+00  4.2711E-04  4.4184E-03  1.1061E-03  4.4093E-03  0.0000E+00
 27  3.7612E-02  2.0388E-03  0.0000E+00  2.9729E-03  6.1889E-03  9.4360E-03  1.1288E-02  0.0000E+00  4.3447E-03
 28  0.0000E+00  5.0588E-03  0.0000E+00  0.0000E+00  0.0000E+00  0.0000E+00  5.2659E-03  1.1737E-02  1.3180E-02
 29  6.7732E-01  8.8455E-03  2.1328E-03  4.2350E-03  6.2995E-02  3.2467E-02  1.2600E-02  0.0000E+00  1.8673E-02
 30  0.0000E+00  2.1863E-02  3.5284E-02  6.1686E-02  1.6187E-01  0.0000E+00  9.1801E-02  8.5964E-02  1.0923E-01
 31  0.0000E+00  3.2105E-02  0.0000E+00  3.4952E-03  4.8111E-02  0.0000E+00  2.0999E-02  1.4073E-05  5.2347E-02
 32  0.0000E+00  4.7324E-02  1.8954E-01  6.9051E-02  1.1490E-01  9.8458E-02  1.0621E-01  3.8873E-01  3.9329E-02
 33  0.0000E+00  1.2414E-01  1.2964E-01  8.8447E-01  5.1697E-01  9.9602E-02  5.9888E-01  2.9855E-01  4.0554E-01
 34  5.7175E-01  8.5076E+01  8.4706E+01  8.3705E+01  8.2758E+01  8.1167E+01  8.2505E+01  8.3508E+01  8.0529E+01
 35  1.9016E-05  2.2374E-04  8.0433E-04  8.7474E-04  6.5640E-04  4.7775E-04  5.4234E-04  1.0300E-03  6.2954E-05
 36  0.0000E+00  7.9185E-05  6.6255E-05  0.0000E+00  7.9223E-05  5.7479E-04  8.5275E-05  1.0042E-04  8.2394E-05
 37  1.0373E-02  1.0314E-04  2.0043E-05  2.1971E-04  9.4149E-05  3.3649E-04  5.6075E-04  2.6782E-04  2.8050E-04
 38  1.5394E-03  2.1001E-04  9.7544E-04  8.7488E-05  6.0506E-04  9.8326E-04  4.7636E-04  7.1458E-04  0.0000E+00
 39  0.0000E+00  2.0101E-04  1.8542E-04  1.2699E-03  6.1368E-04  0.0000E+00  4.6811E-04  1.1491E-03  2.6847E-04
 40  1.4793E-01  6.9963E-04  0.0000E+00  3.3581E-03  0.0000E+00  3.6245E-03  1.4166E-03  7.2880E-04  2.2126E-03
 41  0.0000E+00  9.6903E-04  0.0000E+00  4.6895E-03  1.1947E-03  1.0157E-03  4.2426E-03  9.2146E-03  0.0000E+00
 42  1.2042E-02  2.1744E-03  9.9690E-04  1.1724E-03  4.9061E-03  8.3242E-03  9.3828E-04  7.1869E-03  7.2321E-03
 43  8.1042E-04  2.0367E-03  1.3668E-03  0.0000E+00  2.5256E-04  2.0027E-02  7.9665E-03  0.0000E+00  1.1758E-02
 44  0.0000E+00  5.1621E-03  8.6642E-03  1.9457E-02  6.8604E-03  6.4174E-03  1.0152E-02  8.5738E-04  9.0892E-03
 45  0.0000E+00  9.0031E-03  4.1648E-02  6.2001E-02  3.1550E-02  2.0027E-02  9.5565E-02  0.0000E+00  4.2800E-02
 46  0.0000E+00  1.8927E-02  3.6423E-02  1.2544E-02  3.7371E-02  0.0000E+00  1.1978E-01  3.6765E-02  9.9734E-02
 47  0.0000E+00  3.1909E-02  6.1909E-02  1.3133E-01  1.9424E-02  0.0000E+00  0.0000E+00  3.1028E-01  1.1440E-01
 48  0.0000E+00  4.5474E-02  3.7967E-01  0.0000E+00  1.3821E-01  4.8982E-02  0.0000E+00  1.1751E-01  4.9703E-02
 49  9.6211E+00  9.0365E-02  4.3541E-01  7.5575E-02  2.7860E-01  3.4325E-01  6.0956E-02  2.6647E-01  9.5750E-01
 50  0.0000E+00  1.8736E-01  9.8783E-01  0.0000E+00  0.0000E+00  0.0000E+00  0.0000E+00  0.0000E+00  2.5140E-01
 51  0.0000E+00  1.4385E-04  3.8996E-04  4.9773E-04  1.3664E-04  7.4924E-04  5.7468E-04  3.3447E-04  1.0525E-04
 52  0.0000E+00  6.3502E-05  2.1233E-04  3.5525E-04  0.0000E+00  0.0000E+00  9.5521E-05  3.2326E-04  1.3508E-04
 53  0.0000E+00  8.5437E-05  3.1317E-04  1.6366E-04  2.1265E-04  7.4036E-06  4.2710E-04  3.6501E-05  0.0000E+00
 54  4.0299E-03  2.5110E-04  2.3111E-04  3.4027E-04  0.0000E+00  8.5171E-04  0.0000E+00  1.3099E-03  4.3069E-04
 55  0.0000E+00  3.5055E-04  0.0000E+00  0.0000E+00  1.6659E-04  6.4660E-04  3.1525E-03  7.1789E-05  0.0000E+00
 56  1.4896E-01  8.8616E-04  5.6335E-03  2.2868E-03  0.0000E+00  2.9711E-03  1.8715E-03  2.9500E-03  2.9631E-03
 57  2.5773E-01  1.1904E-03  6.6496E-03  1.4052E-03  9.4249E-03  9.7290E-03  4.9001E-03  1.3185E-02  2.0823E-03
 58  2.2749E-02  1.1416E-03  5.3908E-04  2.3466E-04  2.1063E-03  5.1496E-03  3.1793E-03  5.2600E-03  5.0275E-03
 59  0.0000E+00  1.7280E-03  4.1890E-03  9.7590E-03  7.3032E-03  1.9440E-03  5.1964E-03  0.0000E+00  3.2966E-03
 60  0.0000E+00  6.3784E-03  0.0000E+00  7.9131E-03  2.2553E-02  2.0657E-02  1.8354E-02  0.0000E+00  5.0749E-02
 61  7.3704E+00  1.1862E-02  2.5430E-02  0.0000E+00  1.6786E-02  3.3251E-02  3.4906E-02  0.0000E+00  8.8523E-03
 62  0.0000E+00  2.0589E-02  8.9735E-02  0.0000E+00  8.1541E-02  0.0000E+00  4.3805E-02  2.8242E-02  6.4507E-02
 63  0.0000E+00  3.9767E-02  0.0000E+00  1.5426E-02  8.3419E-03  7.4140E-02  1.5199E-01  3.4189E-02  0.0000E+00
 64  8.4799E+00  1.1617E-01  0.0000E+00  0.0000E+00  8.9505E-02  1.0414E+00  7.7324E-01  0.0000E+00  0.0000E+00
 65  2.9752E+00  2.5925E-01  0.0000E+00  7.6956E-01  4.3263E-01  5.3915E-01  4.5932E-01  0.0000E+00  1.0220E+00
 66  2.4977E+01  3.1771E-01  4.9270E-02  4.7502E-01  4.1445E-01  1.7202E+00  5.3746E-01  2.4951E-01  2.0985E+00

# AV, chi2 & Mass for <> & i_chain = 1 ...  7 solutions
AV      -1.0000     -0.9958     -1.0000     -1.0000     -1.0000     -1.0000     -1.0000     -1.0000     -1.0000
chi2 1.8846E-05  2.9274E-05  2.6517E-05  2.6568E-05  2.6669E-05  2.5362E-05  2.5533E-05  2.6047E-05  2.6610E-05
Mass 2.8783E-14  1.0317E-13  9.3302E-14  9.3860E-14  9.3206E-14  8.9090E-14  8.8485E-14  9.0840E-14  9.2814E-14
-324.83                                  [v0_min (km/s) before EX0s...]
 254.33                                  [vd_min (km/s) before EX0s...]


## Synthetic spectrum (Best Model) ##l_obs f_obs f_syn wei
 3478    [Nl_obs]
 3741.00   -0.22676   0.85221    0.000
 3742.00    0.24511   0.82135    0.000
 3743.00    0.43067   0.79507    0.000
 3744.00    0.46896   0.77591    0.000
 3745.00    0.42143   0.76727   -1.000
 3746.00    0.74132   0.77448   -1.000
 3747.00    1.24780   0.79807   -1.000
 3748.00    1.11477   0.83117   -1.000
 3749.00    0.70053   0.86597   -1.000
 3750.00    0.18535   0.89986   -1.000
 3751.00   -0.36795   0.93081    0.000
 3752.00   -0.45082   0.95423    0.000
 3753.00   -0.38292   0.96720    0.000
 3754.00   -0.06067   0.97284    0.000
 3755.00    0.32974   0.97642   -1.000
 3756.00    0.44269   0.97885   -1.000
 3757.00    0.49475   0.97805   -1.000
 3758.00    0.38181   0.97247   -1.000
 3759.00    0.24006   0.96235   -1.000
 3760.00    0.11844   0.94890   -1.000
 3761.00   -0.00049   0.93138    0.000
 3762.00    0.09177   0.90830   -1.000
 3763.00    0.20387   0.88409   -1.000
 3764.00    0.36940   0.86556   -1.000
 3765.00    0.53802   0.85407   -1.000
 3766.00    0.48804   0.84933   -1.000
 3767.00    0.43496   0.85550   -1.000
 3768.00    0.63527   0.87571   -1.000
 3769.00    0.82914   0.90553   -1.000
 3770.00    0.86646   0.93878   -1.000
 3771.00    0.89025   0.97409   -1.000
 3772.00    0.73660   1.01157   -1.000
 3773.00    0.61510   1.04779   -1.000
 3774.00    0.77582   1.07886   -1.000
 3775.00    0.91126   1.10475   -1.000
 3776.00    0.88285   1.12576   -1.000
 3777.00    0.84086   1.13913   -1.000
 3778.00    0.73014   1.14316   -1.000
 3779.00    0.63055   1.14035   -1.000
 3780.00    0.57650   1.13245   -1.000
 3781.00    0.44353   1.11791   -1.000
 3782.00    0.04284   1.09701   -1.000
 3783.00   -0.23450   1.07425    0.000
 3784.00   -0.15908   1.05135    0.000
 3785.00   -0.04792   1.02601    0.000
 3786.00    0.15058   0.99749   -1.000
 3787.00    0.29822   0.96733   -1.000
 3788.00    0.33870   0.93500   -1.000
 3789.00    0.29506   0.89846   -1.000
 3790.00    0.09735   0.86066   -1.000
 3791.00   -0.09314   0.82849    0.000
 3792.00   -0.27209   0.80590    0.000
 3793.00   -0.32511   0.79321    0.000
 3794.00   -0.20126   0.79336    0.000
 3795.00    0.05879   0.81082   -1.000
 3796.00    0.48717   0.84355   -1.000
 3797.00    0.76160   0.88374   -1.000
 3798.00    0.86831   0.92541   -1.000
 3799.00    0.47170   0.96693   -1.000
 3800.00   -0.40861   1.00633    0.000
 3801.00   -0.86188   1.03968    0.000
 3802.00   -0.95328   1.06533    0.000
 3803.00   -0.96109   1.08515    0.000
 3804.00   -0.90652   1.10083    0.000
 3805.00   -1.01480   1.11143    0.000
 3806.00   -1.22983   1.11585    0.000
 3807.00   -0.76985   1.11407    0.000
 3808.00    0.07749   1.10696   -1.000
 3809.00    0.87768   1.09629   -1.000
 3810.00    1.65430   1.08318   -1.000
 3811.00    1.18484   1.06768   -1.000
 3812.00    0.17653   1.05174   -1.000
 3813.00   -0.21633   1.03923    0.000
 3814.00   -0.38095   1.02983    0.000
 3815.00   -0.06926   1.01915    0.000
 3816.00    0.39216   1.00673   -1.000
 3817.00    0.08203   0.99735   -1.000
 3818.00   -0.43049   0.99155    0.000
 3819.00   -0.66800   0.98336    0.000
 3820.00   -0.84659   0.96905    0.000
 3821.00   -0.13218   0.95155    0.000
 3822.00    0.73378   0.93353   -1.000
 3823.00    0.47817   0.91233   -1.000
 3824.00    0.07865   0.88506   -1.000
 3825.00   -0.24227   0.85335    0.000
 3826.00   -0.55613   0.82002    0.000
 3827.00   -0.49233   0.78580    0.000
 3828.00   -0.40822   0.75246    0.000
 3829.00   -0.67019   0.72424    0.000
 3830.00   -0.93090   0.70499    0.000
 3831.00   -0.49959   0.69701    0.000
 3832.00   -0.09833   0.70231    0.000
 3833.00   -0.36446   0.72104    0.000
 3834.00   -0.63433   0.75092    0.000
 3835.00   -0.95063   0.78886    0.000
 3836.00   -1.12755   0.83199    0.000
 3837.00   -0.12630   0.87703    0.000
 3838.00    0.75048   0.92116   -1.000
 3839.00    0.84426   0.96204   -1.000
 3840.00    0.90838   0.99734   -1.000
 3841.00    0.82617   1.02532   -1.000
 3842.00    0.85226   1.04654   -1.000
 3843.00    1.31189   1.06368   -1.000
 3844.00    1.50118   1.07735   -1.000
 3845.00    0.79166   1.08584   -1.000
 3846.00    0.19364   1.09000   -1.000
 3847.00   -0.09132   1.09303    0.000
 3848.00    0.09143   1.09525    0.000
 3849.00    1.39753   1.09488    0.000
 3850.00    2.05787   1.09188    0.000
 3851.00    1.37894   1.08707    0.000
 3852.00    0.82786   1.08179    0.000
 3853.00    0.50741   1.07898    0.000
 3854.00    0.45517   1.07919    0.000
 3855.00    0.82593   1.08007    0.000
 3856.00    0.73519   1.08248    0.000
 3857.00    0.00558   1.08890    0.000
 3858.00   -0.44130   1.09736    0.000
 3859.00   -0.54369   1.10377    0.000
 3860.00   -0.61734   1.10745    0.000
 3861.00   -0.66010   1.10939    0.000
 3862.00   -0.56892   1.10877    0.000
 3863.00   -0.35081   1.10439    0.000
 3864.00   -0.07991   1.09690    0.000
 3865.00    0.23509   1.08850    0.000
 3866.00    0.46130   1.08047    0.000
 3867.00    0.62220   1.07228    0.000
 3868.00    0.55290   1.06382    0.000
 3869.00    0.33493   1.05627    0.000
 3870.00    0.21041   1.05016    0.000
 3871.00    0.13871   1.04414    0.000
 3872.00   -0.05978   1.03695    0.000
 3873.00   -0.32064   1.02672    0.000
 3874.00   -0.30520   1.01207    0.000
 3875.00   -0.17227   0.99521    0.000
 3876.00   -0.01620   0.97803    0.000
 3877.00    0.14829   0.95617    0.000
 3878.00   -0.12460   0.92636    0.000
 3879.00   -0.53233   0.89352    0.000
 3880.00   -0.29374   0.86177    0.000
 3881.00    0.11076   0.82920   -1.000
 3882.00    0.04696   0.79778   -1.000
 3883.00   -0.11476   0.77591    0.000
 3884.00    0.25251   0.76714   -1.000
 3885.00    0.70701   0.76944   -1.000
 3886.00    0.56155   0.78329   -1.000
 3887.00    0.34179   0.80916   -1.000
 3888.00   -0.49227   0.84233    0.000
 3889.00   -1.37890   0.87770    0.000
 3890.00    0.30745   0.91239   -1.000
 3891.00    2.12203   0.94387   -1.000
 3892.00    1.12920   0.97141   -1.000
 3893.00    0.10385   0.99641   -1.000
 3894.00   -0.05197   1.01784    0.000
 3895.00   -0.19130   1.03349    0.000
 3896.00    0.00661   1.04587   -1.000
 3897.00    0.19861   1.05819   -1.000
 3898.00    0.32084   1.06853   -1.000
 3899.00    0.38505   1.07585   -1.000
 3900.00   -0.02346   1.08415    0.000
 3901.00   -0.31989   1.09480    0.000
 3902.00    0.06821   1.10505   -1.000
 3903.00    0.42764   1.11591   -1.000
 3904.00    0.64914   1.12939   -1.000
 3905.00    0.73850   1.14212   -1.000
 3906.00    0.31041   1.15049   -1.000
 3907.00   -0.02380   1.15560    0.000
 3908.00   -0.05197   1.15827    0.000
 3909.00   -0.07951   1.15613    0.000
 3910.00   -0.10528   1.14914    0.000
 3911.00   -0.04407   1.13985    0.000
 3912.00    0.22257   1.12882   -1.000
 3913.00    0.49332   1.11586   -1.000
 3914.00    0.77243   1.10300   -1.000
 3915.00    0.78451   1.09116   -1.000
 3916.00    0.32230   1.07945   -1.000
 3917.00    0.03044   1.06797   -1.000
 3918.00    0.00326   1.05624   -1.000
 3919.00   -0.03698   1.04238    0.000
 3920.00   -0.09504   1.02491    0.000
 3921.00   -0.01319   1.00297    0.000
 3922.00    0.23674   0.97541   -1.000
 3923.00    0.24067   0.94303   -1.000
 3924.00   -0.01592   0.90809    0.000
 3925.00   -0.28805   0.87211    0.000
 3926.00   -0.57470   0.83741    0.000
 3927.00   -0.64400   0.80859    0.000
 3928.00   -0.53430   0.78928    0.000
 3929.00   -0.33100   0.78043    0.000
 3930.00   -0.05984   0.78294    0.000
 3931.00   -0.27122   0.79801    0.000
 3932.00   -0.78968   0.82377    0.000
 3933.00   -0.56552   0.85542    0.000
 3934.00    0.07193   0.88917   -1.000
 3935.00    0.08640   0.92304   -1.000
 3936.00   -0.20070   0.95413    0.000
 3937.00   -0.21027   0.98017    0.000
 3938.00   -0.10380   1.00282    0.000
 3939.00    0.25152   1.02322   -1.000
 3940.00    0.69586   1.03893   -1.000
 3941.00    0.73887   1.05097    0.064
 3942.00    0.66058   1.06407    0.028
 3943.00    1.09948   1.07729    0.026
 3944.00    1.66828   1.08568    0.026
 3945.00    1.76522   1.08985    0.027
 3946.00    1.76594   1.09472    0.027
 3947.00    1.63535   1.09992    0.027
 3948.00    1.48374   1.09992    0.027
 3949.00    1.41110   1.09397    0.027
 3950.00    1.34790   1.08724    0.027
 3951.00    1.77585   1.08001    0.028
 3952.00    2.24380   1.06673    0.028
 3953.00    1.76347   1.04559    0.028
 3954.00    1.23955   1.01953    0.027
 3955.00    0.65875   0.98976    0.026
 3956.00    0.08910   0.95384    0.026
 3957.00    0.13972   0.90938    0.026
 3958.00    0.21116   0.85857    0.026
 3959.00    0.67684   0.80567    0.026
 3960.00    1.10804   0.75213    0.000
 3961.00    1.15072   0.69893    0.000
 3962.00    1.08499   0.65093    0.000
 3963.00    0.16705   0.61389    0.000
 3964.00   -0.52285   0.59142    0.000
 3965.00    0.14035   0.58511    0.000
 3966.00    0.76367   0.59567    0.000
 3967.00    1.19976   0.62353    0.000
 3968.00    1.46783   0.66644    0.000
 3969.00    1.09196   0.71834    0.000
 3970.00    0.81761   0.77415    0.000
 3971.00    0.86776   0.83161    0.000
 3972.00    0.98465   0.88752    0.000
 3973.00    1.28231   0.93772    0.000
 3974.00    1.35641   0.98045    0.000
 3975.00    0.91140   1.01628    0.000
 3976.00    0.52751   1.04636    0.000
 3977.00    0.26637   1.07129    0.000
 3978.00    0.13622   1.09087    0.000
 3979.00    0.23516   1.10606    0.000
 3980.00    0.55606   1.12006    0.000
 3981.00    1.21677   1.13439    0.025
 3982.00    1.81514   1.14638    0.025
 3983.00    2.32966   1.15541    0.026
 3984.00    1.93065   1.16452    0.026
 3985.00    0.44980   1.17397    0.025
 3986.00   -0.28914   1.17998    0.000
 3987.00   -0.25338   1.18244    0.000
 3988.00   -0.31671   1.18468    0.000
 3989.00   -0.47131   1.18644    0.000
 3990.00   -0.15533   1.18557    0.000
 3991.00    0.54273   1.18339    0.025
 3992.00    0.72618   1.18410    0.025
 3993.00    0.54197   1.18667    0.025
 3994.00    0.50125   1.18756    0.025
 3995.00    0.55050   1.18900    0.025
 3996.00    0.77291   1.19352    0.025
 3997.00    1.09021   1.19554    0.025
 3998.00    0.94528   1.19155    0.025
 3999.00    0.58016   1.18766    0.024
 4000.00    1.01917   1.18700    0.024
 4001.00    1.78868   1.18447    0.025
 4002.00    1.24250   1.18018    0.024
 4003.00    0.23422   1.18125    0.024
 4004.00   -0.07731   1.18805    0.000
 4005.00   -0.18240   1.19444    0.000
 4006.00    0.28596   1.20020    0.024
 4007.00    0.89518   1.20802    0.024
 4008.00    0.79457   1.21694    0.023
 4009.00    0.55283   1.22391    0.023
 4010.00    0.75560   1.22844    0.023
 4011.00    1.02745   1.23213    0.023
 4012.00    1.60746   1.23620    0.023
 4013.00    2.22291   1.23803    0.023
 4014.00    1.84279   1.23531    0.023
 4015.00    1.38570   1.23173    0.023
 4016.00    0.90960   1.22855    0.023
 4017.00    0.43270   1.22169    0.023
 4018.00    1.16867   1.21197    0.023
 4019.00    1.89301   1.20396    0.024
 4020.00    1.62281   1.19758    0.023
 4021.00    1.32297   1.19049    0.022
 4022.00    0.50048   1.18379    0.022
 4023.00   -0.19658   1.17825    0.000
 4024.00    0.45592   1.17341    0.023
 4025.00    1.06837   1.16950    0.023
 4026.00    1.37674   1.16610    0.023
 4027.00    1.49177   1.16355    0.023
 4028.00    0.49161   1.16520    0.023
 4029.00   -0.30604   1.17240    0.000
 4030.00   -0.17565   1.18244    0.000
 4031.00    0.00484   1.19418    0.023
 4032.00    0.37326   1.20667    0.023
 4033.00    0.65677   1.21739    0.023
 4034.00    0.67409   1.22367    0.022
 4035.00    0.76807   1.22498    0.022
 4036.00    1.06597   1.22178    0.023
 4037.00    1.21322   1.21332    0.023
 4038.00    1.01648   1.20110    0.023
 4039.00    0.95378   1.19058    0.023
 4040.00    1.15610   1.18429    0.023
 4041.00    1.17237   1.17976    0.024
 4042.00    0.86812   1.17667    0.024
 4043.00    0.62344   1.17990    0.024
 4044.00    0.46862   1.18917    0.023
 4045.00    0.27929   1.19612    0.023
 4046.00    0.04419   1.19917    0.023
 4047.00    0.62272   1.20147    0.024
 4048.00    2.15115   1.20147    0.024
 4049.00    2.41407   1.19817    0.024
 4050.00    1.37410   1.19331    0.024
 4051.00    0.85561   1.18753    0.023
 4052.00    0.81069   1.18226    0.023
 4053.00    0.86545   1.17853    0.023
 4054.00    1.00000   1.17446    0.023
 4055.00    1.03423   1.16958    0.023
 4056.00    0.99781   1.16430    0.023
 4057.00    1.47541   1.15936    0.023
 4058.00    2.27052   1.15656    0.024
 4059.00    2.21807   1.15402    0.024
 4060.00    1.70830   1.14986    0.023
 4061.00    1.47778   1.14914    0.023
 4062.00    1.37815   1.15416    0.023
 4063.00    1.46295   1.15745    0.022
 4064.00    1.62228   1.15605    0.022
 4065.00    1.68211   1.15507    0.022
 4066.00    1.70763   1.15575    0.022
 4067.00    1.83055   1.15259    0.022
 4068.00    1.98176   1.14442    0.022
 4069.00    1.36371   1.13709    0.022
 4070.00    0.56089   1.13279    0.022
 4071.00    0.43143   1.12845    0.021
 4072.00    0.43244   1.12493    0.021
 4073.00    1.07576   1.12491    0.022
 4074.00    1.81587   1.12836    0.022
 4075.00    1.99374   1.13466    0.022
 4076.00    2.10942   1.14223    0.022
 4077.00    2.16830   1.14979    0.022
 4078.00    2.22303   1.15692    0.022
 4079.00    1.45590   1.16227    0.022
 4080.00    0.65730   1.16605    0.021
 4081.00    1.01930   1.16951    0.021
 4082.00    1.38047   1.17157    0.022
 4083.00    1.46842   1.17159    0.022
 4084.00    1.54641   1.16987    0.022
 4085.00    1.46023   1.16414    0.022
 4086.00    1.35780   1.15295    0.021
 4087.00    1.08814   1.13762    0.021
 4088.00    0.82523   1.11707    0.021
 4089.00    0.61189   1.08953    0.021
 4090.00    0.55312   1.05786    0.021
 4091.00    1.36140   1.02299    0.022
 4092.00    1.86283   0.98442    0.000
 4093.00    0.99111   0.94601    0.000
 4094.00    0.39950   0.91048    0.000
 4095.00    0.83663   0.88004    0.000
 4096.00    1.23910   0.86003    0.000
 4097.00    1.53501   0.85157    0.000
 4098.00    1.65247   0.85291    0.000
 4099.00    1.30358   0.86686    0.000
 4100.00    1.10365   0.89217    0.000
 4101.00    1.23829   0.92170    0.000
 4102.00    1.12187   0.95256    0.000
 4103.00    0.51688   0.98385    0.000
 4104.00    0.34792   1.01252    0.000
 4105.00    0.91879   1.03755    0.000
 4106.00    1.26811   1.05962    0.000
 4107.00    1.28810   1.07891    0.000
 4108.00    1.34934   1.09483    0.000
 4109.00    1.46446   1.10785    0.000
 4110.00    1.46449   1.11891    0.000
 4111.00    1.33205   1.12632    0.000
 4112.00    1.32174   1.12917    0.000
 4113.00    1.43540   1.13074    0.021
 4114.00    1.51405   1.13200    0.021
 4115.00    1.56133   1.13084    0.021
 4116.00    1.52959   1.12946    0.029
 4117.00    1.43550   1.13030    0.099
 4118.00    1.51929   1.13147   -1.000
 4119.00    1.72653   1.13164   -1.000
 4120.00    2.15853   1.13079   -1.000
 4121.00    2.72729   1.12851   -1.000
 4122.00    2.15525   1.12465   -1.000
 4123.00    0.97715   1.11975   -1.000
 4124.00    0.58981   1.11365   -1.000
 4125.00    0.56708   1.10768   -1.000
 4126.00    0.91517   1.10475   -1.000
 4127.00    1.41051   1.10484   -1.000
 4128.00    1.05804   1.10711    0.051
 4129.00    0.41863   1.11297    0.022
 4130.00    0.63335   1.12173    0.020
 4131.00    1.09109   1.12999    0.020
 4132.00    1.39938   1.13773    0.020
 4133.00    1.67258   1.14290    0.020
 4134.00    1.53425   1.14281    0.020
 4135.00    1.31825   1.13973    0.020
 4136.00    1.36872   1.13296    0.021
 4137.00    1.45811   1.12260    0.021
 4138.00    0.90271   1.11454    0.020
 4139.00    0.27880   1.10968    0.020
 4140.00    0.30804   1.10505    0.020
 4141.00    0.38246   1.10440    0.020
 4142.00    0.24884   1.10897    0.020
 4143.00    0.10805   1.11269    0.020
 4144.00    0.62114   1.11491    0.020
 4145.00    1.12490   1.11800    0.020
 4146.00    1.27794   1.11938    0.021
 4147.00    1.38874   1.11843    0.021
 4148.00    0.84632   1.11785    0.021
 4149.00    0.39974   1.11832    0.020
 4150.00    0.89791   1.11901    0.021
 4151.00    1.34906   1.12061    0.021
 4152.00    1.46646   1.12503    0.021
 4153.00    1.48537   1.13090    0.021
 4154.00    0.96661   1.13620    0.021
 4155.00    0.53622   1.14155    0.021
 4156.00    0.49213   1.14755    0.020
 4157.00    0.50299   1.15149    0.020
 4158.00    0.71145   1.15195    0.020
 4159.00    0.92639   1.15195    0.021
 4160.00    1.16091   1.15052    0.021
 4161.00    1.27414   1.14490    0.021
 4162.00    1.07587   1.13783    0.020
 4163.00    0.98916   1.13076    0.020
 4164.00    1.14887   1.12137    0.020
 4165.00    1.27852   1.11016    0.020
 4166.00    1.35057   1.09945    0.020
 4167.00    1.37116   1.09017    0.020
 4168.00    1.30570   1.08232    0.020
 4169.00    1.31353   1.07639    0.020
 4170.00    1.42868   1.07380    0.020
 4171.00    1.31045   1.07403    0.020
 4172.00    0.89165   1.07589    0.019
 4173.00    0.87732   1.08019    0.020
 4174.00    1.32199   1.08573    0.020
 4175.00    1.49377   1.09003    0.020
 4176.00    1.39245   1.09439    0.020
 4177.00    0.92781   1.09916    0.020
 4178.00    0.14248   1.10176    0.019
 4179.00    0.14021   1.10399    0.019
 4180.00    0.74698   1.10615    0.019
 4181.00    0.91843   1.10585    0.019
 4182.00    0.79218   1.10689    0.019
 4183.00    0.69320   1.11031    0.019
 4184.00    0.61058   1.11193    0.019
 4185.00    1.03614   1.11262    0.019
 4186.00    1.72749   1.11550    0.019
 4187.00    1.90499   1.11823    0.019
 4188.00    1.84941   1.11642    0.019
 4189.00    1.60742   1.11128    0.019
 4190.00    1.29268   1.10656    0.019
 4191.00    1.06866   1.10019    0.018
 4192.00    0.87477   1.08950    0.018
 4193.00    0.94223   1.08050    0.018
 4194.00    1.08253   1.07632    0.019
 4195.00    1.24577   1.07143    0.019
 4196.00    1.41427   1.06813    0.019
 4197.00    1.26358   1.07174    0.019
 4198.00    1.05422   1.07704    0.019
 4199.00    0.49520   1.08193    0.018
 4200.00   -0.11327   1.09032    0.000
 4201.00    0.18082   1.09971    0.018
 4202.00    0.56693   1.10741    0.018
 4203.00    1.10481   1.11393    0.018
 4204.00    1.65258   1.11891    0.018
 4205.00    1.41217   1.12240    0.018
 4206.00    1.14753   1.12348    0.018
 4207.00    0.88264   1.12251    0.018
 4208.00    0.62748   1.12140    0.019
 4209.00    0.65834   1.11870    0.019
 4210.00    0.70289   1.11608    0.019
 4211.00    0.94688   1.11703    0.019
 4212.00    1.13126   1.11753    0.019
 4213.00    0.75190   1.11567    0.019
 4214.00    0.50560   1.11451    0.019
 4215.00    1.17401   1.11158    0.019
 4216.00    1.67811   1.10234    0.019
 4217.00    1.30897   1.08898    0.018
 4218.00    1.08985   1.07487    0.018
 4219.00    1.51146   1.05964    0.018
 4220.00    1.72694   1.04362    0.019
 4221.00    1.21617   1.03249    0.019
 4222.00    0.80103   1.03071    0.019
 4223.00    0.66911   1.03268    0.018
 4224.00    0.69602   1.03686    0.018
 4225.00    1.12375   1.04787    0.019
 4226.00    1.35510   1.05869    0.019
 4227.00    1.15969   1.06418    0.018
 4228.00    1.12198   1.07103    0.018
 4229.00    1.38164   1.07632    0.018
 4230.00    1.34462   1.07563    0.018
 4231.00    0.81919   1.07707    0.018
 4232.00    0.41769   1.08123    0.017
 4233.00    0.19509   1.08280    0.017
 4234.00    0.16215   1.08640    0.017
 4235.00    0.37000   1.09431    0.017
 4236.00    0.63382   1.09995    0.017
 4237.00    0.96025   1.10326    0.017
 4238.00    1.19566   1.10797    0.017
 4239.00    1.34124   1.11011    0.017
 4240.00    1.16516   1.10697    0.017
 4241.00    0.70914   1.10157    0.017
 4242.00    0.81498   1.09624    0.017
 4243.00    1.35156   1.08986    0.017
 4244.00    1.52182   1.08110    0.018
 4245.00    1.44522   1.07433    0.018
 4246.00    1.10904   1.07193    0.018
 4247.00    0.61961   1.06953    0.018
 4248.00    0.50327   1.06707    0.018
 4249.00    0.57904   1.06760    0.018
 4250.00    0.51606   1.06976    0.018
 4251.00    0.39117   1.07042    0.018
 4252.00    0.49009   1.07019    0.018
 4253.00    0.67481   1.07199    0.018
 4254.00    1.22147   1.07406    0.018
 4255.00    1.88609   1.07529    0.018
 4256.00    2.05255   1.07948    0.018
 4257.00    2.08302   1.08510    0.018
 4258.00    1.68579   1.08825    0.017
 4259.00    1.19270   1.09130    0.017
 4260.00    0.98251   1.09345    0.017
 4261.00    0.82291   1.08946    0.017
 4262.00    1.09455   1.08092    0.018
 4263.00    1.42520   1.07164    0.017
 4264.00    1.14288   1.05986    0.018
 4265.00    0.80067   1.04489    0.018
 4266.00    1.03381   1.03313    0.018
 4267.00    1.30213   1.02746    0.018
 4268.00    1.13206   1.02333    0.017
 4269.00    0.95119   1.02304    0.017
 4270.00    0.97295   1.02983    0.017
 4271.00    0.99535   1.03806    0.017
 4272.00    1.03484   1.04610    0.017
 4273.00    1.04969   1.05466    0.017
 4274.00    0.72574   1.06082    0.017
 4275.00    0.41112   1.06447    0.017
 4276.00    0.18121   1.06485    0.017
 4277.00   -0.00013   1.06173    0.000
 4278.00    0.14207   1.05767    0.017
 4279.00    0.35686   1.05131    0.017
 4280.00    0.94740   1.04209    0.017
 4281.00    1.46912   1.03342    0.017
 4282.00    1.70355   1.02535   -2.000
 4283.00    1.99367   1.01677   -2.000
 4284.00    2.47601   1.00967   -2.000
 4285.00    2.79282   1.00494   -2.000
 4286.00    2.62851   1.00224   -2.000
 4287.00    2.25506   1.00015   -2.000
 4288.00    1.36288   0.99723   -2.000
 4289.00    0.77182   0.99435   -2.000
 4290.00    0.82452   0.98890   -2.000
 4291.00    0.90952   0.97925   -2.000
 4292.00    1.05449   0.96877   -2.000
 4293.00    1.11768   0.95592   -2.000
 4294.00    1.04823   0.94127   -2.000
 4295.00    0.95011   0.92988   -2.000
 4296.00    0.81122   0.91937   -2.000
 4297.00    0.92539   0.90973   -2.000
 4298.00    1.35630   0.90508    0.018
 4299.00    1.39909   0.90198    0.018
 4300.00    1.01377   0.89945    0.017
 4301.00    1.01238   0.90052    0.017
 4302.00    1.38454   0.90301    0.018
 4303.00    1.39860   0.90724    0.018
 4304.00    1.10543   0.91594    0.018
 4305.00    1.16198   0.92729    0.018
 4306.00    1.48283   0.94163    0.018
 4307.00    1.41747   0.96093    0.018
 4308.00    1.09564   0.98175    0.017
 4309.00    0.91803   1.00260    0.017
 4310.00    0.82431   1.02508    0.018
 4311.00    0.88506   1.04479    0.018
 4312.00    1.02410   1.05856    0.017
 4313.00    0.99132   1.06872    0.017
 4314.00    0.88314   1.07282    0.017
 4315.00    1.02713   1.06871    0.017
 4316.00    1.26612   1.06022    0.017
 4317.00    1.16654   1.04859    0.017
 4318.00    0.95872   1.03465    0.017
 4319.00    1.14947   1.02205    0.017
 4320.00    1.44673   1.01250    0.017
 4321.00    1.50686   1.00691    0.017
 4322.00    1.51510   1.00577    0.017
 4323.00    1.17002   1.00762    0.017
 4324.00    0.76346   1.01026    0.017
 4325.00    0.73195   1.01179    0.017
 4326.00    0.75005   1.01072    0.017
 4327.00    0.64779   1.00397    0.017
 4328.00    0.53429   0.98935    0.017
 4329.00    1.09287   0.96937    0.017
 4330.00    1.68988   0.94442    0.000
 4331.00    1.43480   0.91253    0.000
 4332.00    1.16249   0.87986    0.000
 4333.00    1.18841   0.85260    0.000
 4334.00    1.22027   0.82851    0.000
 4335.00    1.39444   0.81190    0.000
 4336.00    1.54986   0.81016    0.000
 4337.00    1.46136   0.81822    0.000
 4338.00    1.35867   0.83271    0.000
 4339.00    1.13192   0.85681    0.000
 4340.00    0.90473   0.88523    0.000
 4341.00    0.67468   0.91116    0.000
 4342.00    0.55955   0.93494    0.000
 4343.00    1.02427   0.95600    0.000
 4344.00    1.39883   0.97214    0.000
 4345.00    1.40539   0.98323    0.000
 4346.00    1.37393   0.99142    0.000
 4347.00    1.21385   0.99985    0.000
 4348.00    1.08179   1.00820    0.000
 4349.00    1.02972   1.01568    0.000
 4350.00    1.16257   1.02521    0.000
 4351.00    1.74627   1.03680    0.016
 4352.00    1.98495   1.04740    0.020
 4353.00    1.49794   1.05730    0.050
 4354.00    1.12204   1.06767   -1.000
 4355.00    0.94929   1.07720   -1.000
 4356.00    1.01258   1.08496   -1.000
 4357.00    1.45298   1.09116   -1.000
 4358.00    1.63840   1.09571   -1.000
 4359.00    1.46631   1.09818   -1.000
 4360.00    1.35498   1.09805   -1.000
 4361.00    1.31860   1.09505   -1.000
 4362.00    1.33497   1.09015   -1.000
 4363.00    1.40868   1.08442   -1.000
 4364.00    1.40720   1.07734    0.061
 4365.00    1.33359   1.06940    0.021
 4366.00    1.21752   1.06263    0.016
 4367.00    1.06554   1.05694    0.016
 4368.00    1.07636   1.05159    0.016
 4369.00    1.20844   1.04778    0.016
 4370.00    1.29277   1.04577    0.016
 4371.00    1.34585   1.04390    0.016
 4372.00    1.29857   1.04152    0.016
 4373.00    1.19382   1.03810    0.016
 4374.00    1.14789   1.03170    0.016
 4375.00    1.13130   1.02230    0.016
 4376.00    1.26667   1.01116    0.016
 4377.00    1.46762   0.99840    0.016
 4378.00    1.55568   0.98582    0.016
 4379.00    1.60196   0.97644    0.016
 4380.00    1.29295   0.97143    0.016
 4381.00    0.87252   0.97030    0.016
 4382.00    0.79574   0.97300    0.016
 4383.00    0.80886   0.98021    0.015
 4384.00    0.77135   0.98966    0.015
 4385.00    0.72302   0.99863    0.016
 4386.00    0.64990   1.00816    0.016
 4387.00    0.57257   1.01789    0.015
 4388.00    0.77461   1.02570    0.015
 4389.00    1.01234   1.03174    0.015
 4390.00    1.07392   1.03731    0.016
 4391.00    1.11979   1.04171    0.016
 4392.00    1.12997   1.04304    0.015
 4393.00    1.13826   1.04298    0.015
 4394.00    1.16060   1.04233    0.016
 4395.00    1.18035   1.03838    0.016
 4396.00    0.96700   1.03313    0.016
 4397.00    0.78258   1.02919    0.016
 4398.00    1.23399   1.02429    0.016
 4399.00    1.62280   1.01945    0.016
 4400.00    1.23803   1.01830    0.016
 4401.00    0.89614   1.01966    0.016
 4402.00    0.91505   1.02158    0.016
 4403.00    0.96601   1.02594    0.016
 4404.00    1.21780   1.03293    0.016
 4405.00    1.37625   1.03878    0.016
 4406.00    1.07557   1.04232    0.016
 4407.00    0.93229   1.04599    0.016
 4408.00    1.41734   1.04826    0.016
 4409.00    1.71158   1.04694    0.016
 4410.00    1.37305   1.04631    0.016
 4411.00    1.13557   1.04739    0.016
 4412.00    1.18123   1.04744    0.016
 4413.00    1.26541   1.04897    0.016
 4414.00    1.44195   1.05249    0.016
 4415.00    1.45147   1.05520    0.016
 4416.00    1.11530   1.05740    0.016
 4417.00    0.97789   1.05922    0.016
 4418.00    1.19831   1.05998    0.016
 4419.00    1.28612   1.05952    0.016
 4420.00    1.16520   1.05858    0.016
 4421.00    1.14302   1.05723    0.016
 4422.00    1.25730   1.05478    0.016
 4423.00    1.27239   1.05275    0.016
 4424.00    1.16682   1.05027    0.016
 4425.00    1.09715   1.04647    0.016
 4426.00    1.06598   1.04390    0.016
 4427.00    1.22570   1.04150    0.016
 4428.00    1.56595   1.03912    0.016
 4429.00    1.39363   1.03883    0.016
 4430.00    0.79387   1.03967    0.016
 4431.00    0.88643   1.04171    0.016
 4432.00    1.48728   1.04461    0.016
 4433.00    1.74227   1.04721    0.016
 4434.00    1.77429   1.04981    0.016
 4435.00    1.67143   1.05111    0.016
 4436.00    1.49248   1.05135    0.016
 4437.00    1.27398   1.05228    0.016
 4438.00    1.03606   1.05276    0.016
 4439.00    1.07032   1.05346    0.016
 4440.00    1.22007   1.05643    0.016
 4441.00    1.15687   1.05889    0.016
 4442.00    1.01629   1.05997    0.016
 4443.00    0.81524   1.06159    0.016
 4444.00    0.59559   1.06064    0.016
 4445.00    0.83743   1.05629    0.016
 4446.00    1.19742   1.05097    0.016
 4447.00    1.17886   1.04325    0.016
 4448.00    1.08141   1.03394    0.016
 4449.00    0.99148   1.02490    0.016
 4450.00    0.90278   1.01557    0.016
 4451.00    1.01051   1.00785    0.016
 4452.00    1.14245   1.00259    0.016
 4453.00    1.11561   0.99804    0.015
 4454.00    1.07526   0.99604    0.015
 4455.00    1.12585   0.99736    0.015
 4456.00    1.18094   0.99856    0.015
 4457.00    1.32235   1.00088    0.015
 4458.00    1.46162   1.00539    0.015
 4459.00    1.38084   1.00852    0.015
 4460.00    1.30644   1.01091    0.015
 4461.00    1.36131   1.01386    0.000
 4462.00    1.41763   1.01619    0.000
 4463.00    1.49091   1.01819    0.000
 4464.00    1.55877   1.02134    0.000
 4465.00    1.58258   1.02642    0.000
 4466.00    1.58157   1.03258    0.000
 4467.00    1.42943   1.03976    0.000
 4468.00    1.32451   1.04831    0.000
 4469.00    1.44607   1.05620    0.000
 4470.00    1.52876   1.06194    0.000
 4471.00    1.45962   1.06577    0.000
 4472.00    1.39778   1.06708    0.000
 4473.00    1.35968   1.06526    0.000
 4474.00    1.31216   1.06209    0.000
 4475.00    1.23876   1.05904    0.000
 4476.00    1.19065   1.05601    0.000
 4477.00    1.20213   1.05449    0.000
 4478.00    1.21568   1.05529    0.000
 4479.00    1.23342   1.05676    0.000
 4480.00    1.16650   1.05846    0.000
 4481.00    0.94950   1.06026    0.000
 4482.00    0.86137   1.06078    0.014
 4483.00    0.97312   1.05968    0.015
 4484.00    1.01283   1.05800    0.015
 4485.00    0.95443   1.05574    0.014
 4486.00    0.93807   1.05290    0.014
 4487.00    0.97212   1.05133    0.014
 4488.00    0.99002   1.05075    0.014
 4489.00    0.99086   1.05066    0.015
 4490.00    1.02028   1.05256    0.014
 4491.00    1.07636   1.05602    0.014
 4492.00    0.99480   1.06059    0.014
 4493.00    0.80008   1.06609    0.014
 4494.00    0.73772   1.07284    0.014
 4495.00    0.77114   1.08073    0.014
 4496.00    0.92038   1.08758    0.014
 4497.00    1.14321   1.09458    0.014
 4498.00    1.14054   1.10172    0.014
 4499.00    1.01263   1.10645    0.014
 4500.00    0.91770   1.10993    0.014
 4501.00    0.83871   1.11219    0.014
 4502.00    0.93983   1.11233    0.014
 4503.00    1.11609   1.11081    0.014
 4504.00    1.24493   1.10777    0.014
 4505.00    1.35684   1.10412    0.014
 4506.00    1.28802   1.09929    0.014
 4507.00    1.16471   1.09343    0.014
 4508.00    1.04829   1.08864    0.014
 4509.00    0.93360   1.08337    0.014
 4510.00    1.12801   1.07794    0.014
 4511.00    1.38526   1.07431    0.013
 4512.00    1.26493   1.07039    0.014
 4513.00    1.08437   1.06682    0.014
 4514.00    1.04321   1.06315    0.014
 4515.00    1.01862   1.05802    0.014
 4516.00    0.82007   1.05319    0.014
 4517.00    0.60744   1.04591    0.014
 4518.00    0.81725   1.03681    0.014
 4519.00    1.04627   1.02847    0.014
 4520.00    1.17584   1.01811    0.014
 4521.00    1.29436   1.00824    0.014
 4522.00    0.91165   1.00039    0.014
 4523.00    0.55179   0.99271    0.014
 4524.00    0.62072   0.98813    0.014
 4525.00    0.70138   0.98576    0.014
 4526.00    0.91342   0.98465    0.014
 4527.00    1.10951   0.98698    0.013
 4528.00    1.18083   0.99107    0.014
 4529.00    1.23410   0.99714    0.014
 4530.00    1.18068   1.00446    0.014
 4531.00    1.17562   1.01198    0.014
 4532.00    1.39695   1.02054    0.014
 4533.00    1.53793   1.02735    0.014
 4534.00    1.37183   1.03297    0.014
 4535.00    1.21343   1.03794    0.014
 4536.00    1.07956   1.03918    0.014
 4537.00    0.96992   1.03900    0.014
 4538.00    0.92577   1.03824    0.014
 4539.00    0.89069   1.03491    0.014
 4540.00    0.87659   1.03096    0.014
 4541.00    0.84723   1.02612    0.014
 4542.00    0.78727   1.02130    0.013
 4543.00    0.72190   1.01787    0.013
 4544.00    0.64708   1.01283    0.013
 4545.00    0.54948   1.00958    0.013
 4546.00    0.41708   1.00928    0.013
 4547.00    0.46313   1.00806    0.013
 4548.00    0.74875   1.00955    0.014
 4549.00    0.96471   1.01401    0.014
 4550.00    1.09832   1.01809    0.000
 4551.00    1.10063   1.02407    0.000
 4552.00    0.96609   1.03120    0.000
 4553.00    0.92763   1.03695    0.000
 4554.00    0.97749   1.04238    0.000
 4555.00    0.97468   1.04607    0.000
 4556.00    0.92918   1.04797    0.000
 4557.00    0.88866   1.04933    0.000
 4558.00    0.85167   1.04888    0.000
 4559.00    0.86721   1.04852    0.000
 4560.00    0.91563   1.04833    0.000
 4561.00    0.88217   1.04794    0.000
 4562.00    0.80394   1.04924    0.000
 4563.00    0.72246   1.04912    0.000
 4564.00    0.63945   1.04892    0.000
 4565.00    0.74293   1.05097    0.000
 4566.00    0.92291   1.05000    0.000
 4567.00    0.95331   1.04848    0.000
 4568.00    0.93129   1.04931    0.000
 4569.00    1.04481   1.04738    0.000
 4570.00    1.19838   1.04404    0.000
 4571.00    1.09838   1.04122    0.000
 4572.00    0.93625   1.03652    0.000
 4573.00    0.95322   1.03119    0.000
 4574.00    1.00568   1.02605    0.000
 4575.00    1.04795   1.02022    0.000
 4576.00    1.08864   1.01576    0.000
 4577.00    0.94307   1.01349    0.000
 4578.00    0.77619   1.01142    0.000
 4579.00    0.78310   1.01126    0.000
 4580.00    0.80335   1.01330    0.000
 4581.00    0.85880   1.01488    0.000
 4582.00    0.91571   1.01721    0.000
 4583.00    0.85292   1.01964    0.000
 4584.00    0.79221   1.02050    0.000
 4585.00    0.86508   1.02108    0.000
 4586.00    0.93341   1.02075    0.000
 4587.00    0.92233   1.01904    0.000
 4588.00    0.90739   1.01809    0.000
 4589.00    0.85120   1.01712    0.000
 4590.00    0.81530   1.01538    0.000
 4591.00    0.93272   1.01520    0.000
 4592.00    1.03981   1.01488    0.000
 4593.00    1.08756   1.01445    0.000
 4594.00    1.11601   1.01580    0.000
 4595.00    1.05629   1.01615    0.000
 4596.00    0.97712   1.01716    0.000
 4597.00    0.82518   1.02001    0.000
 4598.00    0.73333   1.02260    0.000
 4599.00    0.82943   1.02632    0.000
 4600.00    0.89442   1.03072    0.000
 4601.00    0.87685   1.03537    0.000
 4602.00    0.89869   1.04015    0.000
 4603.00    1.01029   1.04435    0.000
 4604.00    1.09142   1.04832    0.000
 4605.00    1.11241   1.05033    0.000
 4606.00    1.13222   1.05101    0.000
 4607.00    1.15000   1.05196    0.000
 4608.00    1.09901   1.05062    0.000
 4609.00    0.94448   1.04939    0.000
 4610.00    0.86319   1.04926    0.000
 4611.00    0.87881   1.04685    0.000
 4612.00    0.87287   1.04608    0.000
 4613.00    0.84180   1.04665    0.000
 4614.00    0.94787   1.04507    0.000
 4615.00    1.19490   1.04521    0.000
 4616.00    1.22168   1.04659    0.000
 4617.00    1.04881   1.04583    0.000
 4618.00    0.93792   1.04551    0.000
 4619.00    0.87655   1.04561    0.000
 4620.00    0.88697   1.04404    0.000
 4621.00    0.94786   1.04206    0.000
 4622.00    1.02376   1.04061    0.000
 4623.00    1.10891   1.03868    0.000
 4624.00    1.13796   1.03534    0.000
 4625.00    1.13679   1.03237    0.000
 4626.00    1.09592   1.03047    0.000
 4627.00    1.03648   1.02692    0.000
 4628.00    0.96090   1.02273    0.000
 4629.00    0.87881   1.01945    0.000
 4630.00    0.77041   1.01583    0.000
 4631.00    0.65297   1.01257    0.000
 4632.00    0.73703   1.00925    0.000
 4633.00    0.87945   1.00629    0.000
 4634.00    1.09112   1.00435    0.000
 4635.00    1.31938   1.00157    0.000
 4636.00    1.35399   0.99922    0.000
 4637.00    1.35121   0.99714    0.000
 4638.00    0.96962   0.99330    0.000
 4639.00    0.53117   0.99002    0.000
 4640.00    0.56500   0.98749    0.000
 4641.00    0.65080   0.98395    0.000
 4642.00    0.97387   0.98222    0.000
 4643.00    1.31420   0.98225    0.000
 4644.00    1.29503   0.98255    0.000
 4645.00    1.26227   0.98490    0.000
 4646.00    1.14581   0.98739    0.000
 4647.00    1.02895   0.99001    0.000
 4648.00    0.91292   0.99421    0.000
 4649.00    0.81441   0.99707    0.000
 4650.00    1.00223   1.00020    0.000
 4651.00    1.17068   1.00422    0.000
 4652.00    1.14099   1.00681    0.000
 4653.00    1.10049   1.00921    0.000
 4654.00    0.98110   1.01027    0.000
 4655.00    0.89270   1.00887    0.000
 4656.00    0.97759   1.00548    0.000
 4657.00    1.05677   0.99972    0.000
 4658.00    1.11046   0.99218    0.000
 4659.00    1.15130   0.98384    0.000
 4660.00    1.14510   0.97604    0.000
 4661.00    1.08311   0.96898    0.000
 4662.00    0.85000   0.96320    0.000
 4663.00    0.70172   0.96123    0.000
 4664.00    0.77466   0.96208    0.000
 4665.00    0.83020   0.96415    0.000
 4666.00    0.84678   0.96875    0.000
 4667.00    0.83599   0.97402    0.000
 4668.00    0.77208   0.97858    0.000
 4669.00    0.79854   0.98297    0.000
 4670.00    0.97805   0.98584    0.000
 4671.00    1.09459   0.98748    0.000
 4672.00    1.11768   0.98798    0.000
 4673.00    1.11527   0.98702    0.000
 4674.00    1.07960   0.98590    0.000
 4675.00    1.02928   0.98497    0.000
 4676.00    0.96212   0.98401    0.000
 4677.00    0.89750   0.98339    0.000
 4678.00    0.83544   0.98386    0.000
 4679.00    0.80253   0.98469    0.000
 4680.00    0.79567   0.98512    0.000
 4681.00    0.78378   0.98608    0.000
 4682.00    0.76795   0.98699    0.000
 4683.00    0.79713   0.98735    0.000
 4684.00    0.85749   0.98812    0.000
 4685.00    0.97462   0.98869    0.000
 4686.00    1.12622   0.98872    0.000
 4687.00    1.02533   0.98927    0.000
 4688.00    0.79055   0.98913    0.000
 4689.00    0.78955   0.98786    0.000
 4690.00    0.89612   0.98633    0.000
 4691.00    1.04323   0.98376    0.000
 4692.00    1.20639   0.98004    0.000
 4693.00    1.09610   0.97515    0.000
 4694.00    0.89348   0.97028    0.000
 4695.00    0.89989   0.96610    0.000
 4696.00    0.96563   0.96157    0.000
 4697.00    0.93150   0.95763    0.000
 4698.00    0.87400   0.95487    0.000
 4699.00    0.79874   0.95321    0.000
 4700.00    0.72015   0.95248    0.000
 4701.00    0.92700   0.95214    0.000
 4702.00    1.17536   0.95237    0.000
 4703.00    1.16419   0.95376    0.000
 4704.00    1.12559   0.95542    0.000
 4705.00    0.93993   0.95735    0.000
 4706.00    0.74417   0.96082    0.000
 4707.00    0.70867   0.96418    0.000
 4708.00    0.67861   0.96785    0.000
 4709.00    0.77820   0.97269    0.000
 4710.00    0.87624   0.97754    0.000
 4711.00    0.91718   0.98298    0.000
 4712.00    0.94561   0.98809    0.000
 4713.00    0.78203   0.99247    0.000
 4714.00    0.64575   0.99679    0.000
 4715.00    0.77717   0.99966    0.000
 4716.00    0.91604   1.00069    0.000
 4717.00    1.10747   0.99969    0.000
 4718.00    1.25681   0.99712    0.000
 4719.00    1.17708   0.99357    0.000
 4720.00    1.08293   0.98822    0.000
 4721.00    0.92593   0.98203    0.000
 4722.00    0.81528   0.97595    0.000
 4723.00    0.87083   0.97023    0.000
 4724.00    0.94834   0.96587    0.000
 4725.00    1.09192   0.96295    0.000
 4726.00    1.15613   0.96072    0.000
 4727.00    1.01694   0.96060    0.000
 4728.00    0.95327   0.96244    0.000
 4729.00    1.05608   0.96392    0.000
 4730.00    1.09757   0.96637    0.000
 4731.00    1.02181   0.96901    0.000
 4732.00    0.98727   0.97099    0.000
 4733.00    1.02150   0.97441    0.000
 4734.00    1.03811   0.97679    0.000
 4735.00    1.02894   0.97811    0.000
 4736.00    1.03046   0.98097    0.000
 4737.00    1.04573   0.98330    0.000
 4738.00    1.00709   0.98483    0.000
 4739.00    0.90739   0.98657    0.000
 4740.00    0.91334   0.98765    0.000
 4741.00    1.02483   0.98870    0.000
 4742.00    1.05037   0.98901    0.000
 4743.00    1.00017   0.98794    0.000
 4744.00    0.94137   0.98656    0.000
 4745.00    0.87589   0.98472    0.000
 4746.00    0.85864   0.98179    0.000
 4747.00    0.87431   0.97837    0.000
 4748.00    0.84392   0.97508    0.000
 4749.00    0.78598   0.97156    0.000
 4750.00    0.75637   0.96824    0.000
 4751.00    0.74156   0.96474    0.000
 4752.00    0.85755   0.96083    0.000
 4753.00    1.03276   0.95737    0.000
 4754.00    1.12248   0.95344    0.000
 4755.00    1.17891   0.94906    0.000
 4756.00    1.04338   0.94468    0.000
 4757.00    0.84424   0.94048    0.000
 4758.00    0.83054   0.93730    0.000
 4759.00    0.86838   0.93521    0.000
 4760.00    0.87712   0.93415    0.000
 4761.00    0.87920   0.93447    0.012
 4762.00    0.95929   0.93669    0.012
 4763.00    1.05366   0.94001    0.012
 4764.00    1.03937   0.94394    0.012
 4765.00    1.00977   0.94846    0.012
 4766.00    0.99392   0.95248    0.012
 4767.00    0.97945   0.95677    0.012
 4768.00    0.87339   0.96071    0.012
 4769.00    0.76141   0.96314    0.012
 4770.00    0.52758   0.96498    0.012
 4771.00    0.29075   0.96589    0.012
 4772.00    0.39844   0.96592    0.012
 4773.00    0.51127   0.96461    0.012
 4774.00    0.77319   0.96204    0.012
 4775.00    1.01207   0.95941    0.012
 4776.00    0.91802   0.95572    0.012
 4777.00    0.83049   0.95203    0.012
 4778.00    0.80435   0.94886    0.012
 4779.00    0.78072   0.94558    0.012
 4780.00    0.77429   0.94394    0.012
 4781.00    0.77905   0.94258    0.012
 4782.00    0.84311   0.94225    0.012
 4783.00    0.90133   0.94440    0.012
 4784.00    0.93467   0.94636    0.012
 4785.00    0.96228   0.94944    0.011
 4786.00    0.96978   0.95374    0.012
 4787.00    0.97012   0.95723    0.012
 4788.00    0.94931   0.96073    0.012
 4789.00    0.92692   0.96344    0.012
 4790.00    0.90052   0.96477    0.012
 4791.00    0.88653   0.96534    0.012
 4792.00    0.89943   0.96494    0.012
 4793.00    0.89634   0.96363    0.012
 4794.00    0.86316   0.96183    0.012
 4795.00    0.85059   0.95978    0.012
 4796.00    0.87191   0.95792    0.012
 4797.00    0.88907   0.95587    0.012
 4798.00    0.90021   0.95357    0.012
 4799.00    0.89718   0.95202    0.012
 4800.00    0.87618   0.95035    0.012
 4801.00    0.91051   0.94892    0.012
 4802.00    1.00665   0.94803    0.012
 4803.00    0.95458   0.94720    0.012
 4804.00    0.75653   0.94775    0.012
 4805.00    0.69874   0.94879    0.012
 4806.00    0.76281   0.95001    0.012
 4807.00    0.78963   0.95216    0.012
 4808.00    0.78794   0.95416    0.012
 4809.00    0.80744   0.95627    0.012
 4810.00    0.84119   0.95813    0.012
 4811.00    1.01973   0.95903    0.012
 4812.00    1.28359   0.95953    0.012
 4813.00    1.19619   0.95846    0.012
 4814.00    0.92828   0.95655    0.012
 4815.00    0.92086   0.95432    0.012
 4816.00    1.02943   0.95033    0.012
 4817.00    1.01453   0.94650    0.012
 4818.00    0.95238   0.94298    0.012
 4819.00    0.88487   0.93952    0.012
 4820.00    0.81561   0.93722    0.012
 4821.00    0.91653   0.93440    0.012
 4822.00    1.06378   0.93211    0.012
 4823.00    1.03573   0.93159    0.012
 4824.00    0.96851   0.93066    0.012
 4825.00    0.87632   0.92958    0.012
 4826.00    0.77968   0.92869    0.012
 4827.00    0.72142   0.92778    0.012
 4828.00    0.66838   0.92729    0.011
 4829.00    0.72927   0.92618    0.011
 4830.00    0.80123   0.92461    0.012
 4831.00    0.73501   0.92307    0.011
 4832.00    0.66040   0.92129    0.011
 4833.00    0.74530   0.91898    0.011
 4834.00    0.83415   0.91669    0.011
 4835.00    0.87449   0.91474    0.011
 4836.00    0.91038   0.91232    0.011
 4837.00    0.82997   0.91006    0.011
 4838.00    0.75593   0.90788    0.011
 4839.00    0.76869   0.90558    0.011
 4840.00    0.78038   0.90306    0.011
 4841.00    0.78227   0.89877    0.011
 4842.00    0.80665   0.89380    0.011
 4843.00    0.98021   0.88848    0.011
 4844.00    1.08563   0.88103    0.011
 4845.00    0.83944   0.87181    0.011
 4846.00    0.69031   0.86065    0.011
 4847.00    0.94523   0.84738    0.011
 4848.00    1.15567   0.83216    0.000
 4849.00    1.21289   0.81494    0.000
 4850.00    1.18394   0.79678    0.000
 4851.00    0.90506   0.77801    0.000
 4852.00    0.70880   0.75954    0.000
 4853.00    0.71702   0.74208    0.000
 4854.00    0.72422   0.72725    0.000
 4855.00    0.72922   0.71877    0.000
 4856.00    0.77313   0.71568    0.000
 4857.00    0.88911   0.71671    0.000
 4858.00    1.00647   0.72280    0.000
 4859.00    1.12604   0.73210    0.000
 4860.00    1.13713   0.74534    0.000
 4861.00    0.99416   0.76066    0.000
 4862.00    0.97179   0.77482    0.000
 4863.00    1.10006   0.78778    0.000
 4864.00    1.09118   0.79873    0.000
 4865.00    0.93128   0.80896    0.000
 4866.00    0.86493   0.81871    0.000
 4867.00    0.88941   0.82778    0.000
 4868.00    0.94700   0.83594    0.000
 4869.00    1.03294   0.84317    0.000
 4870.00    0.94042   0.85100    0.000
 4871.00    0.71329   0.85853    0.000
 4872.00    0.62251   0.86571    0.000
 4873.00    0.62211   0.87107    0.000
 4874.00    0.76030   0.87397    0.000
 4875.00    0.97894   0.87637    0.012
 4876.00    1.02886   0.87722    0.012
 4877.00    0.99343   0.87688    0.012
 4878.00    0.89429   0.87531    0.012
 4879.00    0.76725   0.87200    0.011
 4880.00    0.82705   0.87000    0.011
 4881.00    0.95707   0.86889    0.012
 4882.00    0.91446   0.86833    0.012
 4883.00    0.81679   0.86901    0.012
 4884.00    0.72582   0.87028    0.012
 4885.00    0.63664   0.87540    0.012
 4886.00    0.65891   0.88249    0.012
 4887.00    0.70550   0.88968    0.012
 4888.00    0.74458   0.89772    0.012
 4889.00    0.78235   0.90470    0.012
 4890.00    0.85963   0.91184    0.012
 4891.00    0.94210   0.91805    0.012
 4892.00    1.05965   0.92120    0.012
 4893.00    1.18046   0.92263    0.012
 4894.00    0.94350   0.92331    0.012
 4895.00    0.68626   0.92256    0.012
 4896.00    0.86592   0.92083    0.012
 4897.00    1.05222   0.91868    0.012
 4898.00    0.87608   0.91649    0.012
 4899.00    0.71659   0.91531    0.012
 4900.00    0.95234   0.91345    0.012
 4901.00    1.15889   0.91072    0.012
 4902.00    0.98801   0.90817    0.012
 4903.00    0.83561   0.90564    0.012
 4904.00    0.84385   0.90374    0.012
 4905.00    0.84640   0.90169    0.012
 4906.00    0.81236   0.89869    0.012
 4907.00    0.79948   0.89535    0.012
 4908.00    0.89303   0.89161    0.012
 4909.00    0.94138   0.88717    0.012
 4910.00    0.80580   0.88195    0.012
 4911.00    0.70833   0.87474    0.012
 4912.00    0.73944   0.86679    0.012
 4913.00    0.75007   0.85987    0.012
 4914.00    0.70238   0.85449    0.012
 4915.00    0.74833   0.85179    0.012
 4916.00    1.02214   0.85063    0.012
 4917.00    1.08381   0.85185    0.012
 4918.00    0.70018   0.85620    0.012
 4919.00    0.50533   0.86374    0.012
 4920.00    0.65496   0.87249    0.012
 4921.00    0.76402   0.88032    0.012
 4922.00    0.80839   0.88766    0.012
 4923.00    0.81427   0.89343    0.012
 4924.00    0.76630   0.89786    0.012
 4925.00    0.76776   0.89975    0.012
 4926.00    0.83012   0.89800    0.012
 4927.00    0.83662   0.89525    0.012
 4928.00    0.78249   0.89268    0.012
 4929.00    0.78651   0.88926    0.012
 4930.00    0.84623   0.88552    0.011
 4931.00    0.87374   0.88194    0.011
 4932.00    0.87405   0.88013    0.011
 4933.00    0.85897   0.88189    0.011
 4934.00    0.83246   0.88503    0.011
 4935.00    0.86497   0.88814    0.011
 4936.00    0.93602   0.89236    0.012
 4937.00    0.94475   0.89749    0.011
 4938.00    0.91786   0.90309    0.011
 4939.00    0.74957   0.90835    0.011
 4940.00    0.51089   0.91239    0.000
 4941.00    0.62970   0.91543    0.000
 4942.00    0.90245   0.91745    0.000
 4943.00    1.05757   0.91767    0.000
 4944.00    1.16926   0.91654    0.000
 4945.00    1.15020   0.91375    0.000
 4946.00    1.09025   0.90962    0.000
 4947.00    1.05642   0.90468    0.000
 4948.00    1.02941   0.89839    0.000
 4949.00    0.96233   0.89219    0.000
 4950.00    0.88672   0.88499    0.000
 4951.00    0.84403   0.87960    0.000
 4952.00    0.80688   0.87732    0.000
 4953.00    0.81461   0.87535    0.000
 4954.00    0.82805   0.87462    0.000
 4955.00    0.90834   0.87376    0.000
 4956.00    0.99457   0.87432    0.000
 4957.00    0.92718   0.87657    0.000
 4958.00    0.85169   0.87718    0.000
 4959.00    0.89058   0.87707    0.000
 4960.00    0.93099   0.87699    0.000
 4961.00    0.91976   0.87678    0.000
 4962.00    0.90781   0.87737    0.000
 4963.00    0.88026   0.87763    0.000
 4964.00    0.85062   0.87825    0.000
 4965.00    0.79550   0.87996    0.000
 4966.00    0.75142   0.88081    0.000
 4967.00    0.79987   0.88163    0.000
 4968.00    0.84154   0.88128    0.000
 4969.00    0.84092   0.87926    0.000
 4970.00    0.83134   0.87629    0.000
 4971.00    0.77780   0.87114    0.000
 4972.00    0.74346   0.86505    0.000
 4973.00    0.78552   0.85821    0.000
 4974.00    0.85269   0.85057    0.000
 4975.00    1.00291   0.84347    0.000
 4976.00    1.08932   0.83734    0.000
 4977.00    0.99738   0.83340    0.000
 4978.00    0.90532   0.83173    0.000
 4979.00    0.81297   0.83145    0.000
 4980.00    0.78136   0.83296    0.000
 4981.00    0.87524   0.83566    0.000
 4982.00    0.93654   0.83923    0.000
 4983.00    0.93929   0.84346    0.000
 4984.00    0.89651   0.84673    0.000
 4985.00    0.78216   0.84999    0.000
 4986.00    0.75412   0.85230    0.000
 4987.00    0.84514   0.85281    0.000
 4988.00    0.84317   0.85332    0.000
 4989.00    0.72831   0.85245    0.000
 4990.00    0.68654   0.85064    0.000
 4991.00    0.72300   0.84815    0.000
 4992.00    0.73634   0.84370    0.000
 4993.00    0.72786   0.83935    0.000
 4994.00    0.66116   0.83486    0.000
 4995.00    0.54601   0.82978    0.000
 4996.00    0.62594   0.82529    0.000
 4997.00    0.84883   0.82063    0.000
 4998.00    0.99590   0.81657    0.000
 4999.00    1.09418   0.81378    0.000
 5000.00    1.08341   0.81168    0.000
 5001.00    1.01127   0.81052    0.000
 5002.00    1.11789   0.80916    0.000
 5003.00    1.31209   0.80692    0.000
 5004.00    1.25882   0.80476    0.000
 5005.00    1.10075   0.80226    0.000
 5006.00    1.00367   0.80020    0.000
 5007.00    0.92871   0.79789    0.000
 5008.00    0.91359   0.79511    0.000
 5009.00    0.91684   0.79357    0.000
 5010.00    0.96315   0.79239    0.000
 5011.00    1.02046   0.79251    0.000
 5012.00    1.00711   0.79409    0.000
 5013.00    0.97908   0.79632    0.000
 5014.00    0.97059   0.79985    0.000
 5015.00    0.96530   0.80336    0.000
 5016.00    0.95375   0.80698    0.000
 5017.00    0.94143   0.81157    0.000
 5018.00    0.80637   0.81554    0.000
 5019.00    0.66093   0.81958    0.000
 5020.00    0.75780   0.82311    0.000
 5021.00    0.86651   0.82626    0.000
 5022.00    0.68396   0.83010    0.000
 5023.00    0.50260   0.83275    0.000
 5024.00    0.66899   0.83486    0.000
 5025.00    0.82044   0.83590    0.000
 5026.00    0.67199   0.83532    0.000
 5027.00    0.54517   0.83387    0.000
 5028.00    0.67111   0.83094    0.000
 5029.00    0.78582   0.82636    0.011
 5030.00    0.80989   0.82136    0.011
 5031.00    0.84118   0.81563    0.011
 5032.00    0.91632   0.80957    0.011
 5033.00    0.96071   0.80497    0.011
 5034.00    0.85805   0.80171    0.011
 5035.00    0.77986   0.80127    0.011
 5036.00    0.79698   0.80298    0.011
 5037.00    0.78263   0.80522    0.011
 5038.00    0.66623   0.80875    0.011
 5039.00    0.59119   0.81243    0.011
 5040.00    0.62971   0.81645    0.011
 5041.00    0.68484   0.82049    0.011
 5042.00    0.77901   0.82276    0.011
 5043.00    0.80450   0.82451    0.011
 5044.00    0.69034   0.82607    0.011
 5045.00    0.64843   0.82737    0.011
 5046.00    0.73433   0.82897    0.011
 5047.00    0.76101   0.83112    0.011
 5048.00    0.69603   0.83400    0.011
 5049.00    0.65928   0.83760    0.011
 5050.00    0.66092   0.84071    0.011
 5051.00    0.62231   0.84399    0.011
 5052.00    0.53551   0.84665    0.011
 5053.00    0.57647   0.84798    0.011
 5054.00    0.75224   0.84831    0.011
 5055.00    0.90773   0.84671    0.011
 5056.00    1.04434   0.84435    0.011
 5057.00    1.04333   0.84119    0.011
 5058.00    0.92939   0.83704    0.011
 5059.00    0.80945   0.83304    0.011
 5060.00    0.68519   0.82887    0.011
 5061.00    0.66802   0.82524    0.011
 5062.00    0.71876   0.82200    0.011
 5063.00    0.71718   0.81889    0.011
 5064.00    0.68659   0.81740    0.011
 5065.00    0.69294   0.81580    0.011
 5066.00    0.71710   0.81391    0.011
 5067.00    0.73427   0.81206    0.011
 5068.00    0.74852   0.81001    0.011
 5069.00    0.84850   0.80759    0.011
 5070.00    0.97900   0.80364    0.011
 5071.00    1.00150   0.80014    0.011
 5072.00    0.99151   0.79717    0.011
 5073.00    0.86157   0.79439    0.011
 5074.00    0.70166   0.79228    0.011
 5075.00    0.64544   0.79126    0.011
 5076.00    0.61024   0.79185    0.011
 5077.00    0.54927   0.79320    0.011
 5078.00    0.48421   0.79592    0.010
 5079.00    0.52061   0.79998    0.011
 5080.00    0.56900   0.80473    0.011
 5081.00    0.63474   0.80918    0.010
 5082.00    0.70187   0.81339    0.010
 5083.00    0.64808   0.81735    0.010
 5084.00    0.58884   0.82040    0.010
 5085.00    0.71487   0.82222    0.010
 5086.00    0.84031   0.82265    0.010
 5087.00    0.82695   0.82199    0.010
 5088.00    0.80946   0.82003    0.010
 5089.00    0.71508   0.81703    0.010
 5090.00    0.63198   0.81325    0.010
 5091.00    0.67446   0.80976    0.010
 5092.00    0.71246   0.80649    0.010
 5093.00    0.71559   0.80327    0.010
 5094.00    0.72524   0.80064    0.010
 5095.00    0.77330   0.79847    0.010
 5096.00    0.80913   0.79714    0.010
 5097.00    0.78786   0.79620    0.010
 5098.00    0.77795   0.79539    0.010
 5099.00    0.81136   0.79501    0.010
 5100.00    0.84645   0.79476    0.010
 5101.00    0.88688   0.79410    0.010
 5102.00    0.92881   0.79442    0.010
 5103.00    0.97477   0.79537    0.010
 5104.00    0.98895   0.79678    0.010
 5105.00    0.92963   0.79908    0.010
 5106.00    0.84710   0.80161    0.010
 5107.00    0.71814   0.80485    0.011
 5108.00    0.60784   0.80795    0.010
 5109.00    0.53009   0.81044    0.010
 5110.00    0.56199   0.81225    0.010
 5111.00    0.76115   0.81243    0.010
 5112.00    0.88709   0.81121    0.011
 5113.00    0.91492   0.80879    0.011
 5114.00    0.96251   0.80463    0.011
 5115.00    1.03344   0.79972    0.011
 5116.00    0.99365   0.79442    0.011
 5117.00    0.83867   0.78876    0.011
 5118.00    0.79670   0.78355    0.011
 5119.00    0.85847   0.77894    0.011
 5120.00    0.90819   0.77555    0.011
 5121.00    0.94817   0.77344    0.011
 5122.00    0.89506   0.77270    0.011
 5123.00    0.77568   0.77315    0.011
 5124.00    0.76177   0.77439    0.011
 5125.00    0.81373   0.77592    0.011
 5126.00    0.69833   0.77787    0.011
 5127.00    0.49156   0.77948    0.011
 5128.00    0.57176   0.78016    0.011
 5129.00    0.78810   0.78077    0.011
 5130.00    0.81643   0.77995    0.011
 5131.00    0.76781   0.77895    0.011
 5132.00    0.81835   0.77745    0.011
 5133.00    0.90355   0.77487    0.011
 5134.00    0.91044   0.77262    0.011
 5135.00    0.89425   0.77016    0.011
 5136.00    0.88716   0.76822    0.011
 5137.00    0.88228   0.76646    0.011
 5138.00    0.91437   0.76492    0.011
 5139.00    0.95377   0.76410    0.011
 5140.00    0.84400   0.76335    0.011
 5141.00    0.71122   0.76266    0.011
 5142.00    0.72554   0.76250    0.011
 5143.00    0.75662   0.76254    0.010
 5144.00    0.64933   0.76287    0.010
 5145.00    0.53149   0.76396    0.010
 5146.00    0.59070   0.76564    0.010
 5147.00    0.65718   0.76808    0.010
 5148.00    0.62926   0.77080    0.010
 5149.00    0.60081   0.77372    0.010
 5150.00    0.58338   0.77636    0.010
 5151.00    0.57080   0.77855    0.010
 5152.00    0.64223   0.77959    0.010
 5153.00    0.70616   0.77869    0.010
 5154.00    0.69029   0.77576    0.010
 5155.00    0.66247   0.77000    0.010
 5156.00    0.54470   0.76146    0.010
 5157.00    0.46944   0.75055    0.010
 5158.00    0.63775   0.73785    0.011
 5159.00    0.78388   0.72484    0.011
 5160.00    0.82898   0.71180    0.011
 5161.00    0.85761   0.69953    0.010
 5162.00    0.82474   0.68909    0.010
 5163.00    0.79323   0.68070    0.010
 5164.00    0.76594   0.67604    0.010
 5165.00    0.75210   0.67521    0.010
 5166.00    0.77386   0.67778    0.010
 5167.00    0.78047   0.68267    0.010
 5168.00    0.75263   0.68879    0.010
 5169.00    0.73810   0.69577    0.010
 5170.00    0.74977   0.70240    0.010
 5171.00    0.76174   0.70828    0.010
 5172.00    0.77421   0.71230    0.010
 5173.00    0.75333   0.71432    0.010
 5174.00    0.68231   0.71423    0.010
 5175.00    0.59889   0.71288    0.010
 5176.00    0.49908   0.71185    0.010
 5177.00    0.45541   0.71058    0.010
 5178.00    0.47706   0.71051    0.010
 5179.00    0.51849   0.71141    0.010
 5180.00    0.58021   0.71368    0.010
 5181.00    0.60121   0.71770    0.010
 5182.00    0.58537   0.72220    0.010
 5183.00    0.63903   0.72754    0.010
 5184.00    0.74811   0.73207    0.010
 5185.00    0.81940   0.73602    0.010
 5186.00    0.86418   0.73942    0.010
 5187.00    0.84487   0.74198    0.010
 5188.00    0.78612   0.74472    0.010
 5189.00    0.77835   0.74709    0.010
 5190.00    0.79797   0.74952    0.000
 5191.00    0.65851   0.75143    0.000
 5192.00    0.44480   0.75319    0.000
 5193.00    0.43699   0.75361    0.000
 5194.00    0.51201   0.75271    0.000
 5195.00    0.56814   0.75098    0.000
 5196.00    0.61779   0.74787    0.000
 5197.00    0.66021   0.74385    0.000
 5198.00    0.70054   0.73954    0.000
 5199.00    0.74248   0.73556    0.000
 5200.00    0.78481   0.73223    0.000
 5201.00    0.82017   0.73053    0.000
 5202.00    0.85419   0.73037    0.000
 5203.00    0.86749   0.73239    0.000
 5204.00    0.87769   0.73536    0.000
 5205.00    0.72661   0.74014    0.000
 5206.00    0.55787   0.74564    0.000
 5207.00    0.69389   0.75148    0.000
 5208.00    0.85192   0.75769    0.000
 5209.00    0.77191   0.76291    0.000
 5210.00    0.68302   0.76762    0.000
 5211.00    0.73747   0.77076    0.010
 5212.00    0.79157   0.77283    0.010
 5213.00    0.80906   0.77347    0.010
 5214.00    0.82690   0.77278    0.010
 5215.00    0.85041   0.77086    0.010
 5216.00    0.87794   0.76747    0.010
 5217.00    0.94651   0.76402    0.010
 5218.00    0.99544   0.75990    0.010
 5219.00    0.90142   0.75591    0.010
 5220.00    0.80844   0.75271    0.010
 5221.00    0.72125   0.75021    0.010
 5222.00    0.66847   0.74907    0.010
 5223.00    0.76876   0.74938    0.011
 5224.00    0.83738   0.75162    0.011
 5225.00    0.79025   0.75506    0.011
 5226.00    0.74755   0.75902    0.011
 5227.00    0.71840   0.76362    0.011
 5228.00    0.72327   0.76780    0.011
 5229.00    0.81664   0.77188    0.010
 5230.00    0.85722   0.77628    0.010
 5231.00    0.77975   0.78011    0.010
 5232.00    0.74035   0.78391    0.010
 5233.00    0.77470   0.78717    0.010
 5234.00    0.76969   0.78947    0.010
 5235.00    0.69813   0.79055    0.010
 5236.00    0.68910   0.79016    0.010
 5237.00    0.77267   0.78920    0.010
 5238.00    0.76845   0.78713    0.010
 5239.00    0.64995   0.78408    0.010
 5240.00    0.66023   0.78087    0.010
 5241.00    0.81820   0.77749    0.010
 5242.00    0.90033   0.77412    0.010
 5243.00    0.90577   0.77107    0.010
 5244.00    0.81124   0.76881    0.010
 5245.00    0.62753   0.76786    0.010
 5246.00    0.67196   0.76753    0.010
 5247.00    0.89575   0.76818    0.010
 5248.00    0.96657   0.76908    0.010
 5249.00    0.93161   0.76969    0.010
 5250.00    0.86506   0.76980    0.010
 5251.00    0.77937   0.76826    0.010
 5252.00    0.85210   0.76562    0.010
 5253.00    1.00867   0.76115    0.010
 5254.00    1.02037   0.75504    0.010
 5255.00    0.96553   0.74723    0.010
 5256.00    0.89337   0.73836    0.010
 5257.00    0.81436   0.72889    0.010
 5258.00    0.78770   0.71931    0.010
 5259.00    0.77868   0.71086    0.010
 5260.00    0.81110   0.70434    0.010
 5261.00    0.85526   0.70007    0.011
 5262.00    0.83517   0.69781    0.011
 5263.00    0.80008   0.69845    0.011
 5264.00    0.88145   0.70114    0.011
 5265.00    0.98464   0.70528    0.011
 5266.00    0.92430   0.71140    0.011
 5267.00    0.84027   0.71899    0.011
 5268.00    0.83488   0.72725    0.011
 5269.00    0.83776   0.73522    0.011
 5270.00    0.82764   0.74294    0.011
 5271.00    0.81662   0.74953    0.011
 5272.00    0.69190   0.75532    0.011
 5273.00    0.56337   0.76070    0.011
 5274.00    0.73336   0.76510    0.011
 5275.00    0.89643   0.76888    0.011
 5276.00    0.82724   0.77224    0.011
 5277.00    0.75767   0.77542    0.011
 5278.00    0.68224   0.77876    0.011
 5279.00    0.61835   0.78238    0.011
 5280.00    0.66704   0.78594    0.011
 5281.00    0.72315   0.78980    0.011
 5282.00    0.83159   0.79292    0.011
 5283.00    0.92120   0.79502    0.011
 5284.00    0.90876   0.79559    0.010
 5285.00    0.88521   0.79471    0.010
 5286.00    0.81335   0.79266    0.010
 5287.00    0.76213   0.78936    0.010
 5288.00    0.78477   0.78533    0.010
 5289.00    0.81319   0.78078    0.010
 5290.00    0.85895   0.77652    0.010
 5291.00    0.87471   0.77294    0.011
 5292.00    0.81377   0.77027    0.010
 5293.00    0.78988   0.76888    0.010
 5294.00    0.84751   0.76897    0.010
 5295.00    0.87274   0.77092    0.010
 5296.00    0.83617   0.77409    0.010
 5297.00    0.83213   0.77774    0.010
 5298.00    0.88228   0.78189    0.010
 5299.00    0.92789   0.78604    0.010
 5300.00    0.96685   0.78995    0.010
 5301.00    0.97463   0.79312    0.010
 5302.00    0.94238   0.79536    0.010
 5303.00    0.97696   0.79654    0.010
 5304.00    1.08712   0.79697    0.010
 5305.00    1.09750   0.79672    0.010
 5306.00    1.00838   0.79563    0.010
 5307.00    0.90507   0.79379    0.010
 5308.00    0.78928   0.79151    0.010
 5309.00    0.70984   0.78868    0.010
 5310.00    0.65857   0.78562    0.010
 5311.00    0.69348   0.78208    0.010
 5312.00    0.78712   0.77829    0.010
 5313.00    0.84064   0.77411    0.010
 5314.00    0.87021   0.76964    0.010
 5315.00    0.81723   0.76428    0.010
 5316.00    0.72125   0.75868    0.010
 5317.00    0.76607   0.75303    0.010
 5318.00    0.87450   0.74722    0.010
 5319.00    0.89176   0.74194    0.010
 5320.00    0.87359   0.73708    0.010
 5321.00    0.75430   0.73419    0.010
 5322.00    0.60158   0.73267    0.010
 5323.00    0.59484   0.73275    0.010
 5324.00    0.62857   0.73378    0.010
 5325.00    0.63029   0.73705    0.010
 5326.00    0.62471   0.74151    0.010
 5327.00    0.67218   0.74587    0.010
 5328.00    0.72933   0.74988    0.010
 5329.00    0.71561   0.75305    0.010
 5330.00    0.69195   0.75562    0.010
 5331.00    0.67023   0.75721    0.010
 5332.00    0.64871   0.75779    0.010
 5333.00    0.71670   0.75774    0.010
 5334.00    0.79043   0.75759    0.010
 5335.00    0.78378   0.75724    0.010
 5336.00    0.77503   0.75684    0.010
 5337.00    0.88938   0.75693    0.010
 5338.00    0.99502   0.75806    0.010
 5339.00    0.85149   0.75925    0.010
 5340.00    0.71829   0.76097    0.010
 5341.00    0.73325   0.76298    0.010
 5342.00    0.74514   0.76550    0.010
 5343.00    0.72834   0.76884    0.010
 5344.00    0.72372   0.77256    0.010
 5345.00    0.80224   0.77640    0.010
 5346.00    0.85578   0.78084    0.010
 5347.00    0.77743   0.78519    0.010
 5348.00    0.74010   0.78911    0.010
 5349.00    0.87704   0.79202    0.010
 5350.00    0.95157   0.79411    0.010
 5351.00    0.80739   0.79517    0.010
 5352.00    0.70804   0.79466    0.010
 5353.00    0.74084   0.79300    0.010
 5354.00    0.79045   0.78999    0.010
 5355.00    0.88234   0.78604    0.010
 5356.00    0.94415   0.78113    0.010
 5357.00    0.94088   0.77569    0.010
 5358.00    0.92572   0.76992    0.010
 5359.00    0.88822   0.76445    0.010
 5360.00    0.84164   0.75956    0.010
 5361.00    0.78018   0.75503    0.010
 5362.00    0.74925   0.75183    0.010
 5363.00    0.76222   0.74964    0.010
 5364.00    0.76795   0.74878    0.010
 5365.00    0.76453   0.74926    0.010
 5366.00    0.78549   0.75063    0.010
 5367.00    0.83364   0.75325    0.010
 5368.00    0.89247   0.75671   -2.000
 5369.00    0.96181   0.76099   -2.000
 5370.00    1.03336   0.76453   -2.000
 5371.00    1.10684   0.76758   -2.000
 5372.00    1.08326   0.76978   -2.000
 5373.00    0.98554   0.77104   -2.000
 5374.00    0.90186   0.77180   -2.000
 5375.00    0.82760   0.77175   -2.000
 5376.00    0.81357   0.77114   -2.000
 5377.00    0.83497   0.76994   -2.000
 5378.00    0.79968   0.76864   -2.000
 5379.00    0.73532   0.76675   -2.000
 5380.00    0.73140   0.76467   -2.000
 5381.00    0.75433   0.76229   -2.000
 5382.00    0.77388   0.75924   -2.000
 5383.00    0.79215   0.75593    0.010
 5384.00    0.74549   0.75225    0.010
 5385.00    0.67776   0.74844    0.010
 5386.00    0.82343   0.74450    0.010
 5387.00    1.02706   0.74097    0.010
 5388.00    0.91435   0.73761    0.010
 5389.00    0.73117   0.73466    0.010
 5390.00    0.83768   0.73209    0.010
 5391.00    0.99564   0.72988    0.010
 5392.00    0.93555   0.72803    0.010
 5393.00    0.84587   0.72596    0.010
 5394.00    0.78407   0.72457    0.010
 5395.00    0.72496   0.72307    0.010
 5396.00    0.77123   0.72132    0.010
 5397.00    0.82383   0.71941    0.010
 5398.00    0.82255   0.71793    0.010
 5399.00    0.81932   0.71669    0.010
 5400.00    0.72647   0.71593    0.010
 5401.00    0.63883   0.71636    0.010
 5402.00    0.68568   0.71786    0.010
 5403.00    0.72507   0.72077    0.010
 5404.00    0.66339   0.72425    0.010
 5405.00    0.62037   0.72837    0.010
 5406.00    0.74521   0.73268    0.010
 5407.00    0.84106   0.73751    0.010
 5408.00    0.74532   0.74211    0.010
 5409.00    0.67169   0.74601    0.010
 5410.00    0.71175   0.74926    0.010
 5411.00    0.73331   0.75162    0.010
 5412.00    0.67805   0.75337    0.010
 5413.00    0.65557   0.75422    0.010
 5414.00    0.74570   0.75417    0.010
 5415.00    0.81498   0.75344    0.010
 5416.00    0.82395   0.75221    0.010
 5417.00    0.85979   0.75052    0.009
 5418.00    0.96201   0.74846    0.009
 5419.00    1.01764   0.74612    0.009
 5420.00    0.97405   0.74330    0.009
 5421.00    0.90752   0.74067    0.009
 5422.00    0.79852   0.73807    0.009
 5423.00    0.74792   0.73546    0.009
 5424.00    0.79168   0.73313    0.009
 5425.00    0.79644   0.73143    0.009
 5426.00    0.74593   0.73056    0.009
 5427.00    0.74250   0.73128    0.009
 5428.00    0.79782   0.73257    0.009
 5429.00    0.83154   0.73476    0.009
 5430.00    0.84153   0.73779    0.009
 5431.00    0.85446   0.74120    0.009
 5432.00    0.87024   0.74485    0.010
 5433.00    0.86593   0.74785    0.010
 5434.00    0.84444   0.75013    0.009
 5435.00    0.83281   0.75119    0.010
 5436.00    0.82859   0.75101    0.010
 5437.00    0.77685   0.74978    0.010
 5438.00    0.69367   0.74756    0.009
 5439.00    0.72225   0.74485    0.010
 5440.00    0.81559   0.74182    0.010
 5441.00    0.80579   0.73880    0.010
 5442.00    0.74392   0.73636    0.010
 5443.00    0.72799   0.73416    0.010
 5444.00    0.73215   0.73283    0.010
 5445.00    0.76949   0.73148    0.010
 5446.00    0.81929   0.73044    0.010
 5447.00    0.78225   0.72938    0.010
 5448.00    0.71759   0.72870    0.010
 5449.00    0.62330   0.72800    0.010
 5450.00    0.52113   0.72780    0.010
 5451.00    0.55155   0.72787    0.010
 5452.00    0.61080   0.72825    0.010
 5453.00    0.67125   0.72895    0.010
 5454.00    0.73191   0.72950    0.010
 5455.00    0.76383   0.72993    0.010
 5456.00    0.79199   0.73024    0.010
 5457.00    0.72110   0.73035    0.010
 5458.00    0.64105   0.73058    0.010
 5459.00    0.62252   0.73054    0.010
 5460.00    0.60744   0.73037    0.010
 5461.00    0.69546   0.72991    0.010
 5462.00    0.78530   0.72897    0.010
 5463.00    0.82438   0.72750    0.010
 5464.00    0.86010   0.72561    0.010
 5465.00    0.81695   0.72324    0.009
 5466.00    0.77648   0.72064    0.009
 5467.00    0.77053   0.71785    0.009
 5468.00    0.76134   0.71531    0.009
 5469.00    0.72420   0.71317    0.009
 5470.00    0.69381   0.71139    0.009
 5471.00    0.70676   0.71050    0.009
 5472.00    0.71238   0.71055    0.009
 5473.00    0.68128   0.71129    0.009
 5474.00    0.68165   0.71285    0.009
 5475.00    0.80981   0.71461    0.009
 5476.00    0.90116   0.71681    0.009
 5477.00    0.86857   0.71900    0.009
 5478.00    0.83178   0.72128   -2.000
 5479.00    0.78305   0.72342   -2.000
 5480.00    0.75135   0.72512   -2.000
 5481.00    0.76096   0.72645   -2.000
 5482.00    0.79804   0.72736   -2.000
 5483.00    0.89265   0.72816   -2.000
 5484.00    1.21984   0.72854   -2.000
 5485.00    1.97061   0.72884   -2.000
 5486.00    2.54263   0.72891   -2.000
 5487.00    2.83013   0.72858   -2.000
 5488.00    2.96515   0.72822   -2.000
 5489.00    2.88716   0.72758   -2.000
 5490.00    2.41696   0.72680   -2.000
 5491.00    1.46457   0.72566   -2.000
 5492.00    0.72271   0.72449   -2.000
 5493.00    0.20899   0.72327   -2.000
 5494.00    0.07601   0.72178   -2.000
 5495.00    0.30698   0.72018   -2.000
 5496.00    0.56426   0.71853   -2.000
 5497.00    0.84371   0.71701   -2.000
 5498.00    0.88928   0.71554   -2.000
 5499.00    0.76128   0.71424   -2.000
 5500.00    0.72024   0.71291   -2.000
 5501.00    0.73590   0.71186   -2.000
 5502.00    0.74261   0.71127    0.010
 5503.00    0.74421   0.71075    0.010
 5504.00    0.77384   0.71065    0.010
 5505.00    0.81742   0.71090    0.009
 5506.00    0.77348   0.71147    0.009
 5507.00    0.69194   0.71267    0.009
 5508.00    0.69876   0.71439    0.009
 5509.00    0.73811   0.71650    0.009
 5510.00    0.80529   0.71893    0.009
 5511.00    0.88116   0.72125    0.009
 5512.00    0.90053   0.72352    0.009
 5513.00    0.90520   0.72519    0.009
 5514.00    0.96633   0.72621    0.009
 5515.00    1.03945   0.72647    0.009
 5516.00    0.96058   0.72599    0.009
 5517.00    0.85620   0.72487    0.009
 5518.00    0.79819   0.72325    0.009
 5519.00    0.74606   0.72135    0.009
 5520.00    0.75617   0.71936    0.009
 5521.00    0.77177   0.71767    0.009
 5522.00    0.79055   0.71621    0.009
 5523.00    0.80951   0.71560    0.009
 5524.00    0.76084   0.71560    0.009
 5525.00    0.71204   0.71596    0.009
 5526.00    0.74850   0.71665    0.009
 5527.00    0.78303   0.71761    0.009
 5528.00    0.77610   0.71882    0.009
 5529.00    0.77382   0.72006    0.009
 5530.00    0.82831   0.72153    0.009
 5531.00    0.87550   0.72304    0.009
 5532.00    0.86184   0.72429    0.009
 5533.00    0.84375   0.72561    0.009
 5534.00    0.79819   0.72673    0.009
 5535.00    0.76145   0.72776    0.009
 5536.00    0.76786   0.72853    0.009
 5537.00    0.78960   0.72917    0.009
 5538.00    0.87223   0.72981    0.009
 5539.00    0.90153   0.73049    0.009
 5540.00    0.75483   0.73103    0.009
 5541.00    0.67017   0.73154    0.009
 5542.00    0.75853   0.73198    0.009
 5543.00    0.84125   0.73215    0.009
 5544.00    0.91052   0.73201    0.009
 5545.00    0.92582   0.73160    0.009
 5546.00    0.82989   0.73084    0.009
 5547.00    0.76728   0.72983    0.009
 5548.00    0.76442   0.72856    0.009
 5549.00    0.78152   0.72719    0.009
 5550.00    0.82992   0.72573    0.009
 5551.00    0.85125   0.72411    0.009
 5552.00    0.83533   0.72238    0.009
 5553.00    0.82406   0.72062    0.009
 5554.00    0.81845   0.71876    0.009
 5555.00    0.82334   0.71681    0.009
 5556.00    0.83943   0.71489    0.009
 5557.00    0.83895   0.71292    0.009
 5558.00    0.82283   0.71119    0.009
 5559.00    0.78791   0.70956    0.009
 5560.00    0.73737   0.70817    0.009
 5561.00    0.71681   0.70709    0.009
 5562.00    0.71821   0.70633    0.009
 5563.00    0.73633   0.70596    0.009
 5564.00    0.76519   0.70580    0.009
 5565.00    0.82476   0.70614    0.009
 5566.00    0.90159   0.70662    0.009
 5567.00    0.91406   0.70725    0.009
 5568.00    0.89507   0.70810    0.009
 5569.00    0.82300   0.70891    0.009
 5570.00    0.72851   0.70939    0.008
 5571.00    0.71598   0.70965    0.008
 5572.00    0.73310   0.70940    0.008
 5573.00    0.71439   0.70855    0.009
 5574.00    0.68471   0.70699    0.009
 5575.00    0.70442   0.70485    0.009
 5576.00    0.73672   0.70195    0.009
 5577.00    0.76887   0.69870    0.009
 5578.00    0.80099   0.69505    0.009
 5579.00    0.77532   0.69134    0.009
 5580.00    0.74023   0.68792    0.009
 5581.00    0.74127   0.68497    0.009
 5582.00    0.74672   0.68283    0.009
 5583.00    0.68569   0.68154    0.009
 5584.00    0.61907   0.68097    0.009
 5585.00    0.61287   0.68121    0.009
 5586.00    0.60959   0.68175    0.009
 5587.00    0.62532   0.68281    0.009
 5588.00    0.64160   0.68394    0.009
 5589.00    0.67407   0.68506    0.009
 5590.00    0.70697   0.68600    0.009
 5591.00    0.74825   0.68683    0.009
 5592.00    0.78511   0.68772    0.009
 5593.00    0.77062   0.68859    0.009
 5594.00    0.75666   0.69000    0.009
 5595.00    0.74690   0.69155    0.009
 5596.00    0.75962   0.69402    0.009
 5597.00    0.90809   0.69658    0.009
 5598.00    1.01567   0.69978    0.009
 5599.00    0.92828   0.70271    0.009
 5600.00    0.84876   0.70562    0.009
 5601.00    0.79975   0.70783    0.009
 5602.00    0.78147   0.70945    0.009
 5603.00    0.86263   0.71005    0.009
 5604.00    0.90440   0.70984    0.009
 5605.00    0.83827   0.70857    0.009
 5606.00    0.78721   0.70664    0.009
 5607.00    0.77150   0.70391    0.009
 5608.00    0.77849   0.70130    0.009
 5609.00    0.83150   0.69885    0.009
 5610.00    0.83263   0.69663    0.009
 5611.00    0.74213   0.69480    0.008
 5612.00    0.72100   0.69341    0.008
 5613.00    0.80707   0.69260    0.008
 5614.00    0.84717   0.69216    0.008
 5615.00    0.82491   0.69207    0.008
 5616.00    0.78214   0.69211    0.008
 5617.00    0.71488   0.69257    0.008
 5618.00    0.67789   0.69341    0.008
 5619.00    0.67280   0.69446    0.008
 5620.00    0.66907   0.69563    0.008
 5621.00    0.66662   0.69698    0.008
 5622.00    0.66186   0.69826    0.008
 5623.00    0.65521   0.69939    0.008
 5624.00    0.66621   0.70019    0.008
 5625.00    0.68994   0.70059    0.008
 5626.00    0.71490   0.70051    0.008
 5627.00    0.74064   0.69994    0.008
 5628.00    0.77402   0.69899    0.009
 5629.00    0.81162   0.69767    0.009
 5630.00    0.80649   0.69630    0.009
 5631.00    0.78080   0.69483    0.009
 5632.00    0.82651   0.69364    0.009
 5633.00    0.90187   0.69252    0.009
 5634.00    0.87954   0.69194    0.009
 5635.00    0.82249   0.69165    0.009
 5636.00    0.78206   0.69176    0.009
 5637.00    0.74663   0.69218    0.009
 5638.00    0.74926   0.69279    0.009
 5639.00    0.76138   0.69358    0.009
 5640.00    0.79928   0.69426    0.009
 5641.00    0.84238   0.69492    0.009
 5642.00    0.75584   0.69521    0.009
 5643.00    0.64877   0.69525    0.009
 5644.00    0.63966   0.69472    0.009
 5645.00    0.64208   0.69373    0.008
 5646.00    0.71903   0.69223    0.008
 5647.00    0.80194   0.69026    0.008
 5648.00    0.78226   0.68792    0.008
 5649.00    0.75801   0.68542    0.008
 5650.00    0.72783   0.68304    0.008
 5651.00    0.69913   0.68081    0.008
 5652.00    0.74506   0.67909    0.008
 5653.00    0.78759   0.67779    0.008
 5654.00    0.76766   0.67725    0.008
 5655.00    0.75035   0.67723    0.008
 5656.00    0.76206   0.67791    0.008
 5657.00    0.76945   0.67892    0.008
 5658.00    0.74333   0.68045    0.008
 5659.00    0.71380   0.68214    0.008
 5660.00    0.66432   0.68416    0.008
 5661.00    0.62073   0.68617    0.008
 5662.00    0.60448   0.68837    0.008
 5663.00    0.59914   0.69047    0.008
 5664.00    0.63527   0.69257    0.008
 5665.00    0.67693   0.69439    0.008
 5666.00    0.73614   0.69611    0.008
 5667.00    0.78266   0.69747    0.008
 5668.00    0.79505   0.69839    0.008
 5669.00    0.80183   0.69884    0.008
 5670.00    0.79565   0.69874    0.008
 5671.00    0.80312   0.69821    0.008
 5672.00    0.83784   0.69704    0.009
 5673.00    0.84738   0.69564    0.009
 5674.00    0.81311   0.69391    0.009
 5675.00    0.79514   0.69216    0.009
 5676.00    0.80198   0.69038    0.009
 5677.00    0.80742   0.68881    0.009
 5678.00    0.81096   0.68763    0.009
 5679.00    0.80361   0.68683    0.009
 5680.00    0.78344   0.68662    0.009
 5681.00    0.74159   0.68676    0.009
 5682.00    0.67723   0.68741    0.009
 5683.00    0.65094   0.68824    0.009
 5684.00    0.65954   0.68925    0.009
 5685.00    0.68778   0.69020    0.008
 5686.00    0.73187   0.69088    0.008
 5687.00    0.72385   0.69129    0.008
 5688.00    0.67881   0.69108    0.008
 5689.00    0.71845   0.69048    0.008
 5690.00    0.81089   0.68921    0.008
 5691.00    0.78511   0.68760    0.008
 5692.00    0.69492   0.68550    0.008
 5693.00    0.68309   0.68317    0.008
 5694.00    0.70835   0.68056    0.008
 5695.00    0.72890   0.67790    0.008
 5696.00    0.74752   0.67520    0.008
 5697.00    0.72797   0.67256    0.008
 5698.00    0.69510   0.67017    0.008
 5699.00    0.68624   0.66802    0.008
 5700.00    0.68444   0.66631    0.008
 5701.00    0.70361   0.66518    0.008
 5702.00    0.72790   0.66469    0.008
 5703.00    0.73610   0.66497    0.008
 5704.00    0.74114   0.66602    0.008
 5705.00    0.73824   0.66789    0.008
 5706.00    0.73412   0.67038    0.008
 5707.00    0.76989   0.67352    0.008
 5708.00    0.81019   0.67695    0.008
 5709.00    0.81121   0.68063    0.008
 5710.00    0.80926   0.68420    0.008
 5711.00    0.76225   0.68763    0.008
 5712.00    0.71341   0.69062    0.008
 5713.00    0.72046   0.69319    0.008
 5714.00    0.72545   0.69519    0.008
 5715.00    0.62774   0.69663    0.008
 5716.00    0.54074   0.69753    0.008
 5717.00    0.63794   0.69791    0.008
 5718.00    0.73047   0.69789    0.008
 5719.00    0.77359   0.69753    0.008
 5720.00    0.80551   0.69699    0.008
 5721.00    0.75352   0.69635    0.008
 5722.00    0.70304   0.69573    0.008
 5723.00    0.66115   0.69520    0.008
 5724.00    0.63664   0.69481    0.008
 5725.00    0.69107   0.69460    0.008
 5726.00    0.73446   0.69451    0.008
 5727.00    0.73680   0.69457    0.008
 5728.00    0.74127   0.69466    0.008
 5729.00    0.75239   0.69479    0.008
 5730.00    0.74983   0.69487    0.008
 5731.00    0.71113   0.69491    0.008
 5732.00    0.68628   0.69485    0.008
 5733.00    0.69283   0.69470    0.008
 5734.00    0.71119   0.69447    0.008
 5735.00    0.75276   0.69415    0.008
 5736.00    0.78779   0.69372    0.008
 5737.00    0.81163   0.69319    0.008
 5738.00    0.82815   0.69252    0.008
 5739.00    0.83370   0.69177    0.008
 5740.00    0.81487   0.69087    0.000
 5741.00    0.76389   0.68992    0.000
 5742.00    0.69689   0.68885    0.000
 5743.00    0.61129   0.68782    0.000
 5744.00    0.59232   0.68678    0.000
 5745.00    0.64159   0.68588    0.000
 5746.00    0.67802   0.68510    0.000
 5747.00    0.70285   0.68448    0.000
 5748.00    0.71523   0.68408    0.000
 5749.00    0.71769   0.68375    0.000
 5750.00    0.73641   0.68364    0.000
 5751.00    0.76652   0.68351    0.000
 5752.00    0.74329   0.68360    0.000
 5753.00    0.68731   0.68362    0.000
 5754.00    0.68907   0.68390    0.000
 5755.00    0.72181   0.68413    0.000
 5756.00    0.75239   0.68468    0.000
 5757.00    0.78197   0.68521    0.000
 5758.00    0.79296   0.68598    0.000
 5759.00    0.79648   0.68667    0.000
 5760.00    0.77943   0.68741    0.000
 5761.00    0.75533   0.68795    0.000
 5762.00    0.75287   0.68829    0.000
 5763.00    0.75664   0.68829    0.000
 5764.00    0.73795   0.68795    0.000
 5765.00    0.71393   0.68721    0.000
 5766.00    0.68172   0.68607    0.000
 5767.00    0.64794   0.68452    0.000
 5768.00    0.66197   0.68262    0.000
 5769.00    0.68313   0.68034    0.000
 5770.00    0.70551   0.67781    0.000
 5771.00    0.72802   0.67504    0.000
 5772.00    0.76836   0.67223    0.000
 5773.00    0.80998   0.66943    0.000
 5774.00    0.79061   0.66690    0.000
 5775.00    0.76900   0.66472    0.000
 5776.00    0.80168   0.66309    0.000
 5777.00    0.83321   0.66210    0.000
 5778.00    0.81502   0.66180    0.000
 5779.00    0.79469   0.66219    0.000
 5780.00    0.73983   0.66317    0.000
 5781.00    0.68778   0.66468    0.000
 5782.00    0.66427   0.66654    0.000
 5783.00    0.64393   0.66865    0.000
 5784.00    0.64660   0.67085    0.000
 5785.00    0.66331   0.67306    0.000
 5786.00    0.75791   0.67516    0.000
 5787.00    0.83211   0.67716    0.000
 5788.00    0.81585   0.67896    0.000
 5789.00    0.79781   0.68063    0.000
 5790.00    0.77328   0.68207    0.000
 5791.00    0.77530   0.68338   -2.000
 5792.00    0.85836   0.68442   -2.000
 5793.00    0.91692   0.68533   -2.000
 5794.00    0.91189   0.68594   -2.000
 5795.00    0.89126   0.68643   -2.000
 5796.00    0.83581   0.68661   -2.000
 5797.00    0.79453   0.68669   -2.000
 5798.00    0.78065   0.68653   -2.000
 5799.00    0.78632   0.68634   -2.000
 5800.00    0.82495   0.68599   -2.000
 5801.00    0.84005   0.68568   -2.000
 5802.00    0.82035   0.68529   -2.000
 5803.00    0.77669   0.68496   -2.000
 5804.00    0.70189   0.68462   -2.000
 5805.00    0.68335   0.68434   -2.000
 5806.00    0.72921   0.68411   -2.000
 5807.00    0.75209   0.68399   -2.000
 5808.00    0.75175   0.68397   -2.000
 5809.00    0.78408   0.68410   -2.000
 5810.00    0.84549   0.68439   -2.000
 5811.00    0.90471   0.68482    0.000
 5812.00    0.96220   0.68539    0.000
 5813.00    0.95194   0.68605    0.000
 5814.00    0.89493   0.68675    0.000
 5815.00    0.83765   0.68745    0.000
 5816.00    0.78020   0.68808    0.000
 5817.00    0.76221   0.68863    0.000
 5818.00    0.76505   0.68904    0.000
 5819.00    0.78650   0.68933    0.000
 5820.00    0.81648   0.68947    0.000
 5821.00    0.82787   0.68947    0.000
 5822.00    0.83193   0.68934    0.000
 5823.00    0.83014   0.68910    0.000
 5824.00    0.82638   0.68877    0.000
 5825.00    0.79980   0.68838    0.000
 5826.00    0.76679   0.68796    0.000
 5827.00    0.73385   0.68753    0.000
 5828.00    0.70094   0.68714    0.000
 5829.00    0.74382   0.68680    0.000
 5830.00    0.80085   0.68650    0.000
 5831.00    0.78785   0.68625    0.000
 5832.00    0.76474   0.68596    0.000
 5833.00    0.76663   0.68565    0.000
 5834.00    0.77113   0.68518    0.000
 5835.00    0.76627   0.68454    0.000
 5836.00    0.76077   0.68364    0.000
 5837.00    0.77068   0.68245    0.000
 5838.00    0.78110   0.68092    0.000
 5839.00    0.80995   0.67908    0.000
 5840.00    0.83751   0.67694    0.000
 5841.00    0.82409   0.67452    0.000
 5842.00    0.81114   0.67192    0.000
 5843.00    0.80543   0.66914    0.000
 5844.00    0.79613   0.66635    0.000
 5845.00    0.75213   0.66355    0.000
 5846.00    0.71397   0.66092    0.000
 5847.00    0.71685   0.65849    0.000
 5848.00    0.72744   0.65640    0.000
 5849.00    0.77969   0.65470    0.000
 5850.00    0.82147   0.65346    0.000
 5851.00    0.81794   0.65273    0.000
 5852.00    0.80894   0.65244    0.000
 5853.00    0.78046   0.65266    0.000
 5854.00    0.77420   0.65320    0.000
 5855.00    0.83452   0.65413    0.000
 5856.00    0.87315   0.65519    0.000
 5857.00    0.85642   0.65644    0.000
 5858.00    0.83418   0.65766    0.000
 5859.00    0.79983   0.65888    0.000
 5860.00    0.78768   0.65995    0.000
 5861.00    0.81782   0.66087    0.000
 5862.00    0.83569   0.66153    0.000
 5863.00    0.83314   0.66194    0.000
 5864.00    0.81051   0.66202    0.000
 5865.00    0.75862   0.66179    0.000
 5866.00    0.72370   0.66119    0.000
 5867.00    0.71053   0.66027    0.000
 5868.00    0.71176   0.65900    0.000
 5869.00    0.72924   0.65739    0.000
 5870.00    0.73275   0.65544    0.000
 5871.00    0.72232   0.65308    0.000
 5872.00    0.70410   0.65030    0.000
 5873.00    0.67902   0.64695    0.000
 5874.00    0.69140   0.64298    0.000
 5875.00    0.73274   0.63822    0.000
 5876.00    0.78858   0.63267    0.000
 5877.00    0.85429   0.62623    0.000
 5878.00    0.87536   0.61905    0.000
 5879.00    0.86981   0.61122    0.000
 5880.00    0.81701   0.60307    0.000
 5881.00    0.73963   0.59495    0.000
 5882.00    0.68319   0.58727    0.000
 5883.00    0.63619   0.58046    0.000
 5884.00    0.60563   0.57491    0.000
 5885.00    0.58145   0.57096    0.000
 5886.00    0.60019   0.56880    0.000
 5887.00    0.63309   0.56855    0.000
 5888.00    0.62611   0.57014    0.000
 5889.00    0.60811   0.57346    0.000
 5890.00    0.62517   0.57823    0.000
 5891.00    0.65020   0.58419    0.000
 5892.00    0.63391   0.59093    0.000
 5893.00    0.61010   0.59813    0.000
 5894.00    0.65945   0.60536    0.000
 5895.00    0.71902   0.61234    0.000
 5896.00    0.73202   0.61876    0.000
 5897.00    0.74034   0.62444    0.000
 5898.00    0.70725   0.62927    0.000
 5899.00    0.67151   0.63318    0.000
 5900.00    0.67213   0.63621    0.000
 5901.00    0.67376   0.63840    0.008
 5902.00    0.65939   0.63987    0.008
 5903.00    0.64630   0.64074    0.008
 5904.00    0.66932   0.64113    0.008
 5905.00    0.68753   0.64121    0.008
 5906.00    0.63719   0.64106    0.008
 5907.00    0.58887   0.64089    0.008
 5908.00    0.55944   0.64069    0.008
 5909.00    0.53423   0.64067    0.008
 5910.00    0.53764   0.64073    0.008
 5911.00    0.54812   0.64101    0.008
 5912.00    0.59589   0.64137    0.008
 5913.00    0.63883   0.64188    0.008
 5914.00    0.66132   0.64239    0.008
 5915.00    0.67232   0.64289    0.008
 5916.00    0.64314   0.64330    0.007
 5917.00    0.61907   0.64360    0.007
 5918.00    0.61001   0.64376    0.007
 5919.00    0.61661   0.64378    0.007
 5920.00    0.66249   0.64369    0.007
 5921.00    0.72277   0.64351    0.007
 5922.00    0.81415   0.64329    0.007
 5923.00    0.86065   0.64307    0.007
 5924.00    0.82301   0.64288    0.007
 5925.00    0.77392   0.64276    0.007
 5926.00    0.70608   0.64270    0.007
 5927.00    0.67685   0.64272    0.007
 5928.00    0.70305   0.64279    0.007
 5929.00    0.71386   0.64290    0.007
 5930.00    0.70524   0.64301    0.008
 5931.00    0.70009   0.64311    0.008
 5932.00    0.69881   0.64317    0.008
 5933.00    0.69724   0.64317    0.008
 5934.00    0.69540   0.64310    0.008
 5935.00    0.69584   0.64295    0.008
 5936.00    0.69826   0.64272    0.008
 5937.00    0.67477   0.64239    0.008
 5938.00    0.63152   0.64198    0.009
 5939.00    0.59707   0.64147    0.009
 5940.00    0.56852   0.64089    0.009
 5941.00    0.57563   0.64026    0.009
 5942.00    0.60370   0.63960    0.009
 5943.00    0.61254   0.63897    0.009
 5944.00    0.61155   0.63840    0.008
 5945.00    0.61504   0.63796    0.008
 5946.00    0.62052   0.63766    0.007
 5947.00    0.59268   0.63757    0.007
 5948.00    0.55213   0.63769    0.007
 5949.00    0.55486   0.63804    0.007
 5950.00    0.57158   0.63860    0.007
 5951.00    0.59742   0.63935    0.007
 5952.00    0.62574   0.64026    0.007
 5953.00    0.61516   0.64124    0.007
 5954.00    0.59595   0.64229    0.007
 5955.00    0.59097   0.64330    0.007
 5956.00    0.58851   0.64430    0.007
 5957.00    0.58703   0.64514    0.007
 5958.00    0.58568   0.64590    0.007
 5959.00    0.61598   0.64647    0.007
 5960.00    0.64931   0.64688    0.007
 5961.00    0.67169   0.64707    0.007
 5962.00    0.69341   0.64705    0.007
 5963.00    0.67683   0.64679    0.007
 5964.00    0.65948   0.64626    0.007
 5965.00    0.67401   0.64550    0.007
 5966.00    0.68879   0.64449    0.008
 5967.00    0.71005   0.64332    0.007
 5968.00    0.72706   0.64198    0.007
 5969.00    0.68686   0.64058    0.007
 5970.00    0.64927   0.63916    0.007
 5971.00    0.63507   0.63779    0.007
 5972.00    0.62493   0.63652    0.007
 5973.00    0.64147   0.63540    0.008
 5974.00    0.64740   0.63446    0.008
 5975.00    0.59888   0.63371    0.008
 5976.00    0.55967   0.63319    0.007
 5977.00    0.55898   0.63290    0.007
 5978.00    0.57610   0.63284    0.007
 5979.00    0.65427   0.63302    0.007
 5980.00    0.71487   0.63338    0.007
 5981.00    0.72478   0.63392    0.007
 5982.00    0.72014   0.63455    0.007
 5983.00    0.67970   0.63523    0.007
 5984.00    0.63978   0.63588    0.007
 5985.00    0.60096   0.63642    0.007
 5986.00    0.56629   0.63683    0.007
 5987.00    0.53924   0.63701    0.007
 5988.00    0.52666   0.63700    0.007
 5989.00    0.53740   0.63673    0.007
 5990.00    0.54585   0.63626    0.007
 5991.00    0.55106   0.63559    0.007
 5992.00    0.55538   0.63478    0.007
 5993.00    0.55858   0.63383    0.007
 5994.00    0.57405   0.63283    0.007
 5995.00    0.60298   0.63178    0.007
 5996.00    0.61345   0.63074    0.007
 5997.00    0.60605   0.62973    0.007
 5998.00    0.63268   0.62880    0.007
 5999.00    0.68834   0.62797    0.007
 6000.00    0.71883   0.62724    0.007
 6001.00    0.73042   0.62664    0.008
 6002.00    0.71354   0.62613    0.008
 6003.00    0.67787   0.62573    0.007
 6004.00    0.66046   0.62537    0.007
 6005.00    0.65360   0.62507    0.008
 6006.00    0.63774   0.62478    0.008
 6007.00    0.61733   0.62449    0.007
 6008.00    0.59548   0.62421    0.007
 6009.00    0.57301   0.62393    0.008
 6010.00    0.58502   0.62373    0.008
 6011.00    0.60993   0.62359    0.007
 6012.00    0.63957   0.62362    0.007
 6013.00    0.67071   0.62381    0.007
 6014.00    0.68059   0.62424    0.007
 6015.00    0.68485   0.62492    0.007
 6016.00    0.67642   0.62583    0.007
 6017.00    0.66525   0.62701    0.007
 6018.00    0.67265   0.62836    0.007
 6019.00    0.68324   0.62991    0.007
 6020.00    0.68693   0.63151    0.007
 6021.00    0.68972   0.63318    0.007
 6022.00    0.67030   0.63477    0.007
 6023.00    0.64884   0.63629    0.007
 6024.00    0.61451   0.63765    0.007
 6025.00    0.57946   0.63881    0.007
 6026.00    0.59015   0.63980    0.007
 6027.00    0.60196   0.64053    0.007
 6028.00    0.62621   0.64112    0.007
 6029.00    0.65069   0.64147    0.007
 6030.00    0.68057   0.64175    0.007
 6031.00    0.70728   0.64186    0.007
 6032.00    0.69359   0.64198    0.007
 6033.00    0.67815   0.64203    0.007
 6034.00    0.64761   0.64213    0.007
 6035.00    0.61920   0.64224    0.007
 6036.00    0.60435   0.64237    0.007
 6037.00    0.59464   0.64252    0.007
 6038.00    0.61059   0.64261    0.007
 6039.00    0.62033   0.64269    0.007
 6040.00    0.60498   0.64260    0.007
 6041.00    0.58783   0.64243    0.007
 6042.00    0.56462   0.64206    0.007
 6043.00    0.54747   0.64155    0.007
 6044.00    0.54747   0.64088    0.007
 6045.00    0.54967   0.64005    0.007
 6046.00    0.55722   0.63916    0.007
 6047.00    0.57120   0.63817    0.007
 6048.00    0.59864   0.63721    0.007
 6049.00    0.61849   0.63623    0.007
 6050.00    0.62455   0.63531    0.007
 6051.00    0.61710   0.63447    0.007
 6052.00    0.58819   0.63370    0.007
 6053.00    0.57250   0.63307    0.007
 6054.00    0.57524   0.63254    0.007
 6055.00    0.57596   0.63224    0.007
 6056.00    0.57419   0.63210    0.007
 6057.00    0.56902   0.63223    0.007
 6058.00    0.56018   0.63259    0.007
 6059.00    0.55466   0.63318    0.007
 6060.00    0.55229   0.63399    0.007
 6061.00    0.54006   0.63488    0.007
 6062.00    0.51953   0.63585    0.007
 6063.00    0.52241   0.63669    0.008
 6064.00    0.54263   0.63737    0.008
 6065.00    0.55824   0.63772    0.008
 6066.00    0.57084   0.63774    0.007
 6067.00    0.57499   0.63734    0.007
 6068.00    0.57431   0.63657    0.007
 6069.00    0.56550   0.63545    0.007
 6070.00    0.55266   0.63404    0.007
 6071.00    0.54665   0.63249    0.007
 6072.00    0.54356   0.63081    0.007
 6073.00    0.55872   0.62921    0.007
 6074.00    0.58058   0.62764    0.007
 6075.00    0.59591   0.62632    0.007
 6076.00    0.60921   0.62513    0.007
 6077.00    0.62738   0.62422    0.007
 6078.00    0.64681   0.62348    0.007
 6079.00    0.65044   0.62298    0.007
 6080.00    0.65071   0.62265    0.007
 6081.00    0.60681   0.62248    0.007
 6082.00    0.55553   0.62244    0.007
 6083.00    0.51100   0.62246    0.007
 6084.00    0.46734   0.62258    0.007
 6085.00    0.48928   0.62265    0.007
 6086.00    0.51698   0.62272    0.007
 6087.00    0.55380   0.62268    0.007
 6088.00    0.59110   0.62252    0.007
 6089.00    0.57099   0.62217    0.007
 6090.00    0.55004   0.62164    0.007
 6091.00    0.54495   0.62095    0.007
 6092.00    0.54169   0.62011    0.007
 6093.00    0.57740   0.61927    0.007
 6094.00    0.60786   0.61842    0.007
 6095.00    0.57456   0.61777    0.007
 6096.00    0.54477   0.61729    0.007
 6097.00    0.54411   0.61715    0.007
 6098.00    0.54210   0.61727    0.007
 6099.00    0.53178   0.61769    0.007
 6100.00    0.52025   0.61836    0.007
 6101.00    0.50284   0.61916    0.007
 6102.00    0.49101   0.62002    0.007
 6103.00    0.50125   0.62080    0.007
 6104.00    0.51495   0.62141    0.007
 6105.00    0.54001   0.62174    0.007
 6106.00    0.56277   0.62177    0.007
 6107.00    0.57911   0.62143    0.007
 6108.00    0.59737   0.62074    0.007
 6109.00    0.62019   0.61973    0.007
 6110.00    0.64636   0.61846    0.007
 6111.00    0.67939   0.61700    0.007
 6112.00    0.69536   0.61550    0.007
 6113.00    0.68079   0.61406    0.007
 6114.00    0.66014   0.61277    0.007
 6115.00    0.62997   0.61176    0.007
 6116.00    0.59886   0.61099    0.007
 6117.00    0.56644   0.61056    0.007
 6118.00    0.53925   0.61034    0.007
 6119.00    0.51839   0.61030    0.007
 6120.00    0.52340   0.61025    0.007
 6121.00    0.55601   0.61014    0.007
 6122.00    0.59916   0.60979    0.007
 6123.00    0.65222   0.60921    0.007
 6124.00    0.69715   0.60832    0.007
 6125.00    0.73533   0.60715    0.007
 6126.00    0.73354   0.60568    0.007
 6127.00    0.70257   0.60415    0.007
 6128.00    0.66284   0.60268    0.007
 6129.00    0.61751   0.60144    0.007
 6130.00    0.59740   0.60056    0.007
 6131.00    0.59143   0.60011    0.007
 6132.00    0.59303   0.60023    0.007
 6133.00    0.59833   0.60073    0.007
 6134.00    0.59422   0.60178    0.007
 6135.00    0.58614   0.60296    0.007
 6136.00    0.58345   0.60447    0.007
 6137.00    0.58269   0.60579    0.007
 6138.00    0.59200   0.60715    0.007
 6139.00    0.60437   0.60805    0.007
 6140.00    0.60408   0.60878    0.007
 6141.00    0.60056   0.60899    0.007
 6142.00    0.55543   0.60886    0.007
 6143.00    0.50170   0.60828    0.007
 6144.00    0.50802   0.60726    0.007
 6145.00    0.52411   0.60586    0.007
 6146.00    0.55478   0.60390    0.007
 6147.00    0.58721   0.60161    0.007
 6148.00    0.60022   0.59874    0.007
 6149.00    0.61160   0.59564    0.007
 6150.00    0.58601   0.59216    0.007
 6151.00    0.55865   0.58859    0.007
 6152.00    0.56781   0.58496    0.007
 6153.00    0.57840   0.58142    0.007
 6154.00    0.64113   0.57822    0.007
 6155.00    0.70038   0.57539    0.007
 6156.00    0.69109   0.57316    0.007
 6157.00    0.68099   0.57150    0.007
 6158.00    0.66156   0.57062    0.007
 6159.00    0.63624   0.57036    0.008
 6160.00    0.56375   0.57065    0.007
 6161.00    0.49512   0.57151    0.007
 6162.00    0.44974   0.57273    0.007
 6163.00    0.42340   0.57435    0.007
 6164.00    0.48764   0.57611    0.007
 6165.00    0.54689   0.57814    0.007
 6166.00    0.58684   0.58017    0.007
 6167.00    0.61449   0.58220    0.007
 6168.00    0.60245   0.58420    0.007
 6169.00    0.59329   0.58603    0.007
 6170.00    0.59196   0.58772    0.007
 6171.00    0.58968   0.58905    0.007
 6172.00    0.58517   0.59021    0.007
 6173.00    0.57958   0.59082    0.007
 6174.00    0.57182   0.59117    0.007
 6175.00    0.55731   0.59099    0.007
 6176.00    0.53090   0.59050    0.007
 6177.00    0.52296   0.58959    0.007
 6178.00    0.54353   0.58827    0.007
 6179.00    0.57389   0.58687    0.007
 6180.00    0.61753   0.58535    0.007
 6181.00    0.63052   0.58394    0.007
 6182.00    0.60694   0.58262    0.007
 6183.00    0.60100   0.58164    0.007
 6184.00    0.61360   0.58096    0.007
 6185.00    0.64897   0.58067    0.007
 6186.00    0.70546   0.58070    0.007
 6187.00    0.73241   0.58107    0.007
 6188.00    0.73521   0.58173    0.007
 6189.00    0.72826   0.58259    0.007
 6190.00    0.71431   0.58360    0.007
 6191.00    0.71861   0.58466    0.007
 6192.00    0.73446   0.58570    0.007
 6193.00    0.81703   0.58669    0.007
 6194.00    0.93646   0.58757    0.007
 6195.00    1.17756   0.58830    0.007
 6196.00    1.47707   0.58885   -2.000
 6197.00    1.56440   0.58911   -2.000
 6198.00    1.56377   0.58908   -2.000
 6199.00    1.33459   0.58870   -2.000
 6200.00    1.02440   0.58785   -2.000
 6201.00    0.67820   0.58668   -2.000
 6202.00    0.32122   0.58502   -2.000
 6203.00    0.29067   0.58312   -2.000
 6204.00    0.34120   0.58093   -2.000
 6205.00    0.44285   0.57869   -2.000
 6206.00    0.55479   0.57637   -2.000
 6207.00    0.57475   0.57423   -2.000
 6208.00    0.58020   0.57216    0.007
 6209.00    0.55414   0.57047    0.007
 6210.00    0.52439   0.56907    0.007
 6211.00    0.51877   0.56804    0.007
 6212.00    0.51507   0.56731    0.007
 6213.00    0.53182   0.56679    0.007
 6214.00    0.54947   0.56650    0.007
 6215.00    0.59140   0.56630    0.007
 6216.00    0.63328   0.56611    0.007
 6217.00    0.65985   0.56586    0.007
 6218.00    0.68474   0.56552    0.007
 6219.00    0.67900   0.56502    0.007
 6220.00    0.67377   0.56446    0.007
 6221.00    0.67404   0.56407    0.007
 6222.00    0.67070   0.56355    0.007
 6223.00    0.63955   0.56332    0.007
 6224.00    0.61287   0.56305    0.007
 6225.00    0.61238   0.56293    0.007
 6226.00    0.61332   0.56281    0.007
 6227.00    0.62090   0.56272    0.007
 6228.00    0.62903   0.56266    0.007
 6229.00    0.63927   0.56240    0.007
 6230.00    0.64778   0.56221    0.007
 6231.00    0.65081   0.56178    0.007
 6232.00    0.65619   0.56116    0.007
 6233.00    0.66783   0.56053    0.007
 6234.00    0.65893   0.55986    0.007
 6235.00    0.60270   0.55915    0.007
 6236.00    0.54417   0.55855    0.007
 6237.00    0.48105   0.55809    0.007
 6238.00    0.44056   0.55768    0.007
 6239.00    0.43931   0.55728    0.007
 6240.00    0.45104   0.55692    0.007
 6241.00    0.48248   0.55631    0.007
 6242.00    0.51517   0.55581    0.007
 6243.00    0.54954   0.55505    0.007
 6244.00    0.57752   0.55441    0.007
 6245.00    0.59801   0.55350    0.007
 6246.00    0.59252   0.55278    0.007
 6247.00    0.56011   0.55202    0.007
 6248.00    0.54521   0.55158    0.007
 6249.00    0.54631   0.55152    0.007
 6250.00    0.56374   0.55168    0.007
 6251.00    0.59433   0.55245    0.007
 6252.00    0.60293   0.55343    0.007
 6253.00    0.59595   0.55486    0.007
 6254.00    0.58120   0.55635    0.007
 6255.00    0.56163   0.55817    0.007
 6256.00    0.58635   0.55993    0.007
 6257.00    0.63514   0.56175    0.007
 6258.00    0.73107   0.56343    0.007
 6259.00    0.84928   0.56495    0.008
 6260.00    0.82345   0.56631    0.008
 6261.00    0.73894   0.56744    0.009
 6262.00    0.62812   0.56847    0.009
 6263.00    0.50814   0.56919    0.009
 6264.00    0.45604   0.56984    0.009
 6265.00    0.42386   0.57020    0.009
 6266.00    0.45182   0.57051    0.008
 6267.00    0.49437   0.57059    0.008
 6268.00    0.51354   0.57066    0.007
 6269.00    0.52811   0.57050    0.007
 6270.00    0.55979   0.57044    0.007
 6271.00    0.59409   0.57028    0.007
 6272.00    0.61490   0.57029    0.007
 6273.00    0.63419   0.57044    0.007
 6274.00    0.63294   0.57064    0.007
 6275.00    0.63015   0.57108    0.007
 6276.00    0.61764   0.57151    0.007
 6277.00    0.60474   0.57213    0.007
 6278.00    0.60700   0.57274    0.007
 6279.00    0.60879   0.57328    0.007
 6280.00    0.58695   0.57371    0.000
 6281.00    0.56567   0.57389    0.000
 6282.00    0.55383   0.57385    0.000
 6283.00    0.54388   0.57357    0.000
 6284.00    0.55376   0.57304    0.000
 6285.00    0.55992   0.57225    0.000
 6286.00    0.53824   0.57130    0.000
 6287.00    0.52116   0.57010    0.000
 6288.00    0.53020   0.56892    0.000
 6289.00    0.53868   0.56778    0.000
 6290.00    0.54464   0.56679    0.000
 6291.00    0.54829   0.56592    0.000
 6292.00    0.54336   0.56526    0.000
 6293.00    0.53643   0.56490    0.000
 6294.00    0.52330   0.56490    0.000
 6295.00    0.52070   0.56518    0.000
 6296.00    0.54588   0.56564    0.000
 6297.00    0.55719   0.56621    0.000
 6298.00    0.53710   0.56696    0.000
 6299.00    0.51427   0.56761    0.000
 6300.00    0.48607   0.56812    0.000
 6301.00    0.45767   0.56838    0.000
 6302.00    0.42893   0.56843    0.000
 6303.00    0.42109   0.56821    0.000
 6304.00    0.44454   0.56784    0.000
 6305.00    0.47262   0.56722    0.000
 6306.00    0.50678   0.56641    0.000
 6307.00    0.53448   0.56567    0.000
 6308.00    0.55470   0.56507    0.000
 6309.00    0.56608   0.56439    0.000
 6310.00    0.56843   0.56418    0.000
 6311.00    0.56343   0.56429    0.000
 6312.00    0.55181   0.56466    0.000
 6313.00    0.52580   0.56528    0.000
 6314.00    0.48835   0.56610    0.000
 6315.00    0.44990   0.56729    0.000
 6316.00    0.41076   0.56832    0.000
 6317.00    0.41130   0.56956    0.000
 6318.00    0.43617   0.57049    0.000
 6319.00    0.47280   0.57140    0.000
 6320.00    0.51571   0.57210    0.000
 6321.00    0.52962   0.57239    0.007
 6322.00    0.53005   0.57252    0.007
 6323.00    0.49258   0.57236    0.007
 6324.00    0.43993   0.57197    0.007
 6325.00    0.38054   0.57133    0.007
 6326.00    0.31884   0.57035    0.007
 6327.00    0.34136   0.56944    0.007
 6328.00    0.38808   0.56856    0.007
 6329.00    0.45165   0.56789    0.007
 6330.00    0.51923   0.56715    0.007
 6331.00    0.52414   0.56669    0.007
 6332.00    0.51706   0.56633    0.007
 6333.00    0.51311   0.56600    0.007
 6334.00    0.50962   0.56588    0.007
 6335.00    0.54042   0.56562    0.007
 6336.00    0.57493   0.56583    0.007
 6337.00    0.56035   0.56579    0.007
 6338.00    0.54228   0.56607    0.007
 6339.00    0.51493   0.56615    0.007
 6340.00    0.48725   0.56640    0.007
 6341.00    0.46874   0.56637    0.007
 6342.00    0.45126   0.56627    0.007
 6343.00    0.46925   0.56595    0.007
 6344.00    0.48619   0.56531    0.007
 6345.00    0.48658   0.56445    0.007
 6346.00    0.48836   0.56322    0.007
 6347.00    0.50423   0.56198    0.007
 6348.00    0.51659   0.56047    0.007
 6349.00    0.50358   0.55891    0.007
 6350.00    0.48876   0.55734    0.007
 6351.00    0.46394   0.55599    0.007
 6352.00    0.44094   0.55482    0.007
 6353.00    0.42602   0.55399    0.007
 6354.00    0.41218   0.55357    0.007
 6355.00    0.40223   0.55360    0.007
 6356.00    0.39197   0.55408    0.007
 6357.00    0.38077   0.55497    0.007
 6358.00    0.38916   0.55620    0.007
 6359.00    0.44834   0.55773    0.007
 6360.00    0.50844   0.55938    0.007
 6361.00    0.57057   0.56109    0.007
 6362.00    0.60720   0.56279    0.007
 6363.00    0.59461   0.56441    0.007
 6364.00    0.58041   0.56591    0.007
 6365.00    0.56350   0.56721    0.007
 6366.00    0.54159   0.56823    0.007
 6367.00    0.51230   0.56901    0.007
 6368.00    0.47814   0.56949    0.007
 6369.00    0.43767   0.56975    0.007
 6370.00    0.41146   0.56979    0.007
 6371.00    0.40156   0.56971    0.007
 6372.00    0.40137   0.56947    0.007
 6373.00    0.41095   0.56925    0.007
 6374.00    0.43259   0.56896    0.007
 6375.00    0.46496   0.56865    0.007
 6376.00    0.49378   0.56837    0.007
 6377.00    0.51983   0.56799    0.007
 6378.00    0.53406   0.56767    0.007
 6379.00    0.54013   0.56721    0.007
 6380.00    0.53953   0.56676    0.007
 6381.00    0.53490   0.56616    0.007
 6382.00    0.52054   0.56554    0.007
 6383.00    0.50104   0.56484    0.007
 6384.00    0.48333   0.56404    0.007
 6385.00    0.46646   0.56332    0.007
 6386.00    0.45453   0.56267    0.007
 6387.00    0.44457   0.56216    0.007
 6388.00    0.42626   0.56195    0.007
 6389.00    0.40515   0.56172    0.007
 6390.00    0.41867   0.56165    0.007
 6391.00    0.44193   0.56148    0.007
 6392.00    0.45037   0.56165    0.007
 6393.00    0.45538   0.56176    0.007
 6394.00    0.43049   0.56221    0.007
 6395.00    0.40004   0.56276    0.007
 6396.00    0.42863   0.56307    0.007
 6397.00    0.46571   0.56337    0.007
 6398.00    0.47408   0.56347    0.007
 6399.00    0.47946   0.56348    0.007
 6400.00    0.43105   0.56338    0.007
 6401.00    0.37902   0.56317    0.007
 6402.00    0.38467   0.56293    0.007
 6403.00    0.39220   0.56273    0.007
 6404.00    0.39194   0.56226    0.007
 6405.00    0.39188   0.56196    0.007
 6406.00    0.39789   0.56171    0.007
 6407.00    0.40428   0.56154    0.007
 6408.00    0.41632   0.56129    0.007
 6409.00    0.42838   0.56125    0.007
 6410.00    0.44069   0.56116    0.007
 6411.00    0.45219   0.56119    0.007
 6412.00    0.45812   0.56127    0.007
 6413.00    0.46283   0.56143    0.007
 6414.00    0.46104   0.56178    0.007
 6415.00    0.45950   0.56221    0.007
 6416.00    0.45905   0.56283    0.007
 6417.00    0.46079   0.56316    0.007
 6418.00    0.47034   0.56345    0.007
 6419.00    0.46939   0.56359    0.007
 6420.00    0.43705   0.56367    0.007
 6421.00    0.40918   0.56354    0.007
 6422.00    0.39265   0.56325    0.007
 6423.00    0.39113   0.56291    0.007
 6424.00    0.42249   0.56247    0.007
 6425.00    0.44843   0.56239    0.007
 6426.00    0.46408   0.56233    0.007
 6427.00    0.46803   0.56236    0.007
 6428.00    0.45255   0.56247    0.007
 6429.00    0.44016   0.56259    0.007
 6430.00    0.43226   0.56284    0.007
 6431.00    0.41375   0.56299    0.007
 6432.00    0.38169   0.56319    0.007
 6433.00    0.37032   0.56369    0.007
 6434.00    0.38224   0.56419    0.007
 6435.00    0.41562   0.56435    0.007
 6436.00    0.47031   0.56434    0.007
 6437.00    0.48281   0.56405    0.007
 6438.00    0.45833   0.56349    0.007
 6439.00    0.43525   0.56281    0.007
 6440.00    0.41327   0.56187    0.007
 6441.00    0.39864   0.56081    0.007
 6442.00    0.38902   0.55960    0.007
 6443.00    0.35226   0.55842    0.007
 6444.00    0.29935   0.55796    0.007
 6445.00    0.29701   0.55760    0.007
 6446.00    0.32090   0.55738    0.007
 6447.00    0.36444   0.55724    0.007
 6448.00    0.41682   0.55709    0.007
 6449.00    0.43432   0.55705    0.007
 6450.00    0.43834   0.55736    0.007
 6451.00    0.46416   0.55767    0.007
 6452.00    0.49717   0.55799    0.007
 6453.00    0.52155   0.55808    0.007
 6454.00    0.54356   0.55823    0.007
 6455.00    0.53946   0.55805    0.007
 6456.00    0.52944   0.55810    0.007
 6457.00    0.47807   0.55862    0.007
 6458.00    0.41920   0.55891    0.007
 6459.00    0.39267   0.55930    0.007
 6460.00    0.37063   0.55949    0.007
 6461.00    0.38127   0.55978    0.007
 6462.00    0.39517   0.55977    0.007
 6463.00    0.41853   0.55978    0.007
 6464.00    0.44249   0.55959    0.007
 6465.00    0.45938   0.55931    0.007
 6466.00    0.47603   0.55915    0.007
 6467.00    0.47935   0.55866    0.007
 6468.00    0.48354   0.55812    0.007
 6469.00    0.51191   0.55745    0.007
 6470.00    0.53655   0.55687    0.007
 6471.00    0.50853   0.55605    0.007
 6472.00    0.48633   0.55517    0.007
 6473.00    0.51807   0.55423    0.007
 6474.00    0.54865   0.55308    0.007
 6475.00    0.57136   0.55179    0.007
 6476.00    0.58504   0.55049    0.007
 6477.00    0.55133   0.54916    0.007
 6478.00    0.51275   0.54756    0.007
 6479.00    0.45361   0.54564    0.007
 6480.00    0.40609   0.54347    0.007
 6481.00    0.39912   0.54098    0.007
 6482.00    0.39633   0.53828    0.007
 6483.00    0.40579   0.53526    0.007
 6484.00    0.41560   0.53236    0.007
 6485.00    0.42631   0.52947    0.007
 6486.00    0.44009   0.52694    0.007
 6487.00    0.46048   0.52459    0.007
 6488.00    0.47529   0.52311    0.007
 6489.00    0.47966   0.52256    0.007
 6490.00    0.47851   0.52264    0.007
 6491.00    0.46832   0.52389    0.007
 6492.00    0.46596   0.52535    0.007
 6493.00    0.47483   0.52771    0.007
 6494.00    0.47491   0.53030    0.007
 6495.00    0.46391   0.53310    0.007
 6496.00    0.43979   0.53596    0.007
 6497.00    0.40109   0.53860    0.007
 6498.00    0.39466   0.54104    0.007
 6499.00    0.41986   0.54308    0.007
 6500.00    0.46761   0.54478    0.007
 6501.00    0.53484   0.54596    0.007
 6502.00    0.54495   0.54680    0.007
 6503.00    0.51158   0.54729    0.007
 6504.00    0.47595   0.54754    0.007
 6505.00    0.43881   0.54748    0.007
 6506.00    0.43850   0.54732    0.007
 6507.00    0.45976   0.54696    0.007
 6508.00    0.47405   0.54662    0.007
 6509.00    0.48478   0.54622    0.007
 6510.00    0.48897   0.54602    0.007
 6511.00    0.49027   0.54583    0.007
 6512.00    0.48783   0.54579    0.007
 6513.00    0.48397   0.54601    0.007
 6514.00    0.50243   0.54617    0.007
 6515.00    0.52809   0.54645    0.007
 6516.00    0.50594   0.54658    0.007
 6517.00    0.47086   0.54675    0.007
 6518.00    0.43747   0.54687    0.007
 6519.00    0.40444   0.54689    0.007
 6520.00    0.43774   0.54685    0.007
 6521.00    0.48274   0.54682    0.007
 6522.00    0.48461   0.54678    0.007
 6523.00    0.48068   0.54675    0.007
 6524.00    0.44525   0.54668    0.007
 6525.00    0.40683   0.54653    0.007
 6526.00    0.39536   0.54631    0.007
 6527.00    0.38548   0.54609    0.007
 6528.00    0.38726   0.54585    0.000
 6529.00    0.38955   0.54548    0.000
 6530.00    0.42343   0.54484    0.000
 6531.00    0.45766   0.54410    0.000
 6532.00    0.50059   0.54316    0.000
 6533.00    0.54229   0.54205    0.000
 6534.00    0.56775   0.54064    0.000
 6535.00    0.58809   0.53898    0.000
 6536.00    0.56283   0.53712    0.000
 6537.00    0.53613   0.53504    0.000
 6538.00    0.49997   0.53280    0.000
 6539.00    0.46385   0.53025    0.000
 6540.00    0.42790   0.52770    0.000
 6541.00    0.39544   0.52493    0.000
 6542.00    0.37736   0.52194    0.000
 6543.00    0.37627   0.51864    0.000
 6544.00    0.43319   0.51485    0.000
 6545.00    0.48576   0.51061    0.000
 6546.00    0.52581   0.50558    0.000
 6547.00    0.54610   0.50020    0.000
 6548.00    0.51784   0.49473    0.000
 6549.00    0.48787   0.48909    0.000
 6550.00    0.45431   0.48358    0.000
 6551.00    0.42553   0.47828    0.000
 6552.00    0.40557   0.47357    0.000
 6553.00    0.40497   0.46941    0.000
 6554.00    0.43554   0.46626    0.000
 6555.00    0.47377   0.46391    0.000
 6556.00    0.52281   0.46298    0.000
 6557.00    0.58455   0.46399    0.000
 6558.00    0.66205   0.46629    0.000
 6559.00    0.78457   0.47011    0.000
 6560.00    0.95640   0.47473    0.000
 6561.00    1.06537   0.47951    0.000
 6562.00    1.11360   0.48450    0.000
 6563.00    1.04400   0.48949    0.000
 6564.00    0.87402   0.49437    0.000
 6565.00    0.70983   0.49890    0.000
 6566.00    0.54998   0.50318    0.000
 6567.00    0.47657   0.50704    0.000
 6568.00    0.46013   0.51056    0.000
 6569.00    0.45536   0.51386    0.000
 6570.00    0.45731   0.51655    0.000
 6571.00    0.45209   0.51908    0.000
 6572.00    0.44326   0.52112    0.000
 6573.00    0.44936   0.52293    0.000
 6574.00    0.46196   0.52435    0.000
 6575.00    0.45114   0.52555    0.000
 6576.00    0.43158   0.52650    0.000
 6577.00    0.43587   0.52703    0.000
 6578.00    0.44771   0.52756    0.000
 6579.00    0.50859   0.52755    0.000
 6580.00    0.58244   0.52759    0.000
 6581.00    0.62402   0.52741    0.000
 6582.00    0.65861   0.52705    0.000
 6583.00    0.68080   0.52678    0.000
 6584.00    0.70086   0.52626    0.000
 6585.00    0.69637   0.52592    0.000
 6586.00    0.68869   0.52548    0.000
 6587.00    0.61254   0.52538    0.000
 6588.00    0.53014   0.52541    0.000
 6589.00    0.50825   0.52568    0.000
 6590.00    0.48970   0.52624    0.000
 6591.00    0.48365   0.52659    0.000
 6592.00    0.47746   0.52702    0.000
 6593.00    0.43256   0.52736    0.000
 6594.00    0.38861   0.52769    0.000
 6595.00    0.36654   0.52795    0.000
 6596.00    0.34777   0.52816    0.000
 6597.00    0.37085   0.52825    0.000
 6598.00    0.40189   0.52824    0.000
 6599.00    0.50109   0.52828    0.000
 6600.00    0.59216   0.52823    0.000
 6601.00    0.63155   0.52842    0.000
 6602.00    0.65095   0.52855    0.000
 6603.00    0.57079   0.52893    0.000
 6604.00    0.49637   0.52934    0.000
 6605.00    0.44512   0.52992    0.000
 6606.00    0.40131   0.53058    0.000
 6607.00    0.38242   0.53104    0.000
 6608.00    0.36392   0.53152    0.000
 6609.00    0.34653   0.53174    0.007
 6610.00    0.35782   0.53200    0.007
 6611.00    0.43841   0.53196    0.007
 6612.00    0.50402   0.53184    0.007
 6613.00    0.53835   0.53149    0.007
 6614.00    0.54374   0.53102    0.007
 6615.00    0.49662   0.53042    0.007
 6616.00    0.46462   0.52960    0.007
 6617.00    0.45657   0.52870    0.007
 6618.00    0.45105   0.52767    0.007
 6619.00    0.44904   0.52671    0.007
 6620.00    0.44190   0.52569    0.007
 6621.00    0.42848   0.52497    0.007
 6622.00    0.40632   0.52424    0.007
 6623.00    0.37472   0.52357    0.007
 6624.00    0.37371   0.52297    0.007
 6625.00    0.40183   0.52245    0.007
 6626.00    0.44089   0.52203    0.007
 6627.00    0.48914   0.52173    0.007
 6628.00    0.49879   0.52160    0.007
 6629.00    0.47990   0.52139    0.007
 6630.00    0.45453   0.52148    0.007
 6631.00    0.42497   0.52161    0.007
 6632.00    0.42787   0.52170    0.007
 6633.00    0.44923   0.52170    0.007
 6634.00    0.46673   0.52168    0.007
 6635.00    0.48233   0.52172    0.007
 6636.00    0.48080   0.52168    0.007
 6637.00    0.47192   0.52170    0.007
 6638.00    0.45480   0.52153    0.007
 6639.00    0.43466   0.52147    0.007
 6640.00    0.43516   0.52152    0.007
 6641.00    0.44206   0.52151    0.007
 6642.00    0.46356   0.52133    0.007
 6643.00    0.48883   0.52112    0.007
 6644.00    0.49876   0.52093    0.007
 6645.00    0.50544   0.52059    0.007
 6646.00    0.50705   0.52018    0.007
 6647.00    0.50780   0.51962    0.007
 6648.00    0.50861   0.51913    0.007
 6649.00    0.50942   0.51833    0.007
 6650.00    0.48061   0.51772    0.007
 6651.00    0.44922   0.51702    0.007
 6652.00    0.42037   0.51628    0.007
 6653.00    0.39164   0.51567    0.007
 6654.00    0.40308   0.51498    0.007
 6655.00    0.41480   0.51456    0.007
 6656.00    0.39645   0.51407    0.007
 6657.00    0.37814   0.51391    0.007
 6658.00    0.36074   0.51363    0.007
 6659.00    0.34894   0.51365    0.007
 6660.00    0.40461   0.51386    0.007
 6661.00    0.45696   0.51391    0.007
 6662.00    0.48192   0.51402    0.007
 6663.00    0.49980   0.51380    0.007
 6664.00    0.47399   0.51361    0.007
 6665.00    0.45376   0.51334    0.007
 6666.00    0.46067   0.51306    0.007
 6667.00    0.46913   0.51256    0.007
 6668.00    0.48370   0.51209    0.007
 6669.00    0.48449   0.51162    0.007
 6670.00    0.44004   0.51114    0.007
 6671.00    0.39999   0.51078    0.007
 6672.00    0.37213   0.51039    0.007
 6673.00    0.36442   0.51019    0.007
 6674.00    0.40460   0.51037    0.007
 6675.00    0.43897   0.51090    0.007
 6676.00    0.46141   0.51117    0.007
 6677.00    0.47425   0.51155    0.007
 6678.00    0.46994   0.51192    0.007
 6679.00    0.46286   0.51226    0.007
 6680.00    0.45145   0.51251    0.007
 6681.00    0.42505   0.51261    0.007
 6682.00    0.37811   0.51263    0.007
 6683.00    0.36784   0.51249    0.007
 6684.00    0.40187   0.51234    0.007
 6685.00    0.41881   0.51209    0.007
 6686.00    0.41757   0.51183    0.007
 6687.00    0.41068   0.51145    0.007
 6688.00    0.39848   0.51114    0.007
 6689.00    0.39517   0.51071    0.007
 6690.00    0.39921   0.51034    0.007
 6691.00    0.44009   0.50992    0.007
 6692.00    0.50781   0.50966    0.007
 6693.00    0.53166   0.50953    0.007
 6694.00    0.52744   0.50930    0.007
 6695.00    0.49722   0.50920    0.007
 6696.00    0.45244   0.50883    0.000
 6697.00    0.42089   0.50849    0.000
 6698.00    0.39577   0.50796    0.000
 6699.00    0.41322   0.50737    0.000
 6700.00    0.44858   0.50682    0.000
 6701.00    0.48398   0.50608    0.000
 6702.00    0.51940   0.50530    0.000
 6703.00    0.49445   0.50422    0.000
 6704.00    0.45112   0.50324    0.000
 6705.00    0.42897   0.50216    0.000
 6706.00    0.41218   0.50111    0.000
 6707.00    0.38736   0.50038    0.000
 6708.00    0.36089   0.49951    0.000
 6709.00    0.41166   0.49890    0.000
 6710.00    0.47494   0.49841    0.000
 6711.00    0.53078   0.49812    0.000
 6712.00    0.58572   0.49800    0.000
 6713.00    0.57985   0.49809    0.000
 6714.00    0.56893   0.49864    0.000
 6715.00    0.55457   0.49917    0.000
 6716.00    0.54006   0.49965    0.000
 6717.00    0.63280   0.50014    0.000
 6718.00    0.72425   0.50074    0.000
 6719.00    0.65751   0.50125    0.000
 6720.00    0.59080   0.50167    0.000
 6721.00    0.52460   0.50188    0.000
 6722.00    0.46698   0.50222    0.000
 6723.00    0.50784   0.50239    0.000
 6724.00    0.55196   0.50243    0.000
 6725.00    0.62206   0.50234    0.000
 6726.00    0.66592   0.50207    0.000
 6727.00    0.55248   0.50176    0.000
 6728.00    0.46707   0.50126    0.000
 6729.00    0.51456   0.50083    0.000
 6730.00    0.54980   0.50026    0.000
 6731.00    0.53772   0.49970    0.000
 6732.00    0.53662   0.49907    0.000
 6733.00    0.57086   0.49842    0.000
 6734.00    0.57445   0.49773    0.000
 6735.00    0.49447   0.49717    0.000
 6736.00    0.40621   0.49663    0.000
 6737.00    0.29860   0.49613    0.000
 6738.00    0.24385   0.49555    0.000
 6739.00    0.29590   0.49527    0.000
 6740.00    0.36489   0.49517    0.000
 6741.00    0.46367   0.49491    0.000
 6742.00    0.52889   0.49504    0.000
 6743.00    0.54244   0.49508    0.000
 6744.00    0.54231   0.49545    0.000
 6745.00    0.52370   0.49578    0.000
 6746.00    0.51786   0.49639    0.000
 6747.00    0.52723   0.49711    0.000
 6748.00    0.51574   0.49754    0.000
 6749.00    0.48235   0.49837    0.000
 6750.00    0.45508   0.49885    0.000
 6751.00    0.43347   0.49944    0.000
 6752.00    0.47743   0.49981    0.000
 6753.00    0.57492   0.50007    0.008
 6754.00    0.62935   0.50019    0.008
 6755.00    0.65286   0.50003    0.008
 6756.00    0.60314   0.49996    0.009
 6757.00    0.50726   0.49969    0.009
 6758.00    0.46023   0.49950    0.009
 6759.00    0.44013   0.49923    0.009
 6760.00    0.45968   0.49905    0.009
 6761.00    0.49823   0.49891    0.009
 6762.00    0.53596   0.49885    0.009
 6763.00    0.57334   0.49891    0.009
 6764.00    0.55442   0.49917    0.009
 6765.00    0.51558   0.49937    0.009
 6766.00    0.50052   0.49950    0.009
 6767.00    0.49256   0.49977    0.009
 6768.00    0.54131   0.49989    0.009
 6769.00    0.60411   0.49996    0.009
 6770.00    0.55914   0.49974    0.009
 6771.00    0.49255   0.49940    0.008
 6772.00    0.49723   0.49885    0.008
 6773.00    0.51313   0.49824    0.008
 6774.00    0.51816   0.49762    0.008
 6775.00    0.52194   0.49690    0.008
 6776.00    0.48848   0.49622    0.008
 6777.00    0.45208   0.49545    0.008
 6778.00    0.47615   0.49472    0.008
 6779.00    0.50285   0.49413    0.009
 6780.00    0.47763   0.49377    0.009
 6781.00    0.45075   0.49344    0.009
 6782.00    0.37218   0.49326    0.009
 6783.00    0.29933   0.49326    0.009
 6784.00    0.33017   0.49320    0.009
 6785.00    0.36242   0.49324    0.008
 6786.00    0.41001   0.49331    0.008
 6787.00    0.45921   0.49348    0.008
 6788.00    0.52077   0.49358    0.008
 6789.00    0.56533   0.49373    0.009
 6790.00    0.51083   0.49397    0.009
 6791.00    0.47299   0.49406    0.009
 6792.00    0.51214   0.49417    0.009
 6793.00    0.53696   0.49429    0.009
 6794.00    0.50762   0.49435    0.008
 6795.00    0.47684   0.49429    0.008
 6796.00    0.44154   0.49432    0.008
 6797.00    0.45032   0.49425    0.008
 6798.00    0.57719   0.49407    0.008
 6799.00    0.65360   0.49393    0.009
 6800.00    0.61405   0.49380    0.009
 6801.00    0.58834   0.49368    0.009
 6802.00    0.59015   0.49341    0.009
 6803.00    0.55563   0.49328    0.009
 6804.00    0.45819   0.49324    0.009
 6805.00    0.39537   0.49317    0.009
 6806.00    0.38508   0.49322    0.009
 6807.00    0.40040   0.49322    0.008
 6808.00    0.44986   0.49322    0.008
 6809.00    0.48469   0.49327    0.008
 6810.00    0.50237   0.49336    0.009
 6811.00    0.56244   0.49358    0.009
 6812.00    0.66640   0.49380    0.009
 6813.00    0.68016   0.49392    0.009
 6814.00    0.61158   0.49403    0.009
 6815.00    0.62698   0.49398    0.009
 6816.00    0.70997   0.49392    0.009
 6817.00    0.66748   0.49395    0.009
 6818.00    0.53616   0.49393    0.009
 6819.00    0.46869   0.49393    0.008
 6820.00    0.44087   0.49370    0.008
 6821.00    0.42840   0.49347    0.008
 6822.00    0.42426   0.49314    0.008
 6823.00    0.47122   0.49272    0.008
 6824.00    0.54228   0.49235    0.008
 6825.00    0.52409   0.49191    0.009
 6826.00    0.46962   0.49147    0.009
 6827.00    0.41440   0.49078    0.009
 6828.00    0.35891   0.49011    0.009
 6829.00    0.37111   0.48935    0.009
 6830.00    0.40310   0.48867    0.009
 6831.00    0.46961   0.48807    0.009
 6832.00    0.54449   0.48755    0.009
 6833.00    0.53882   0.48721    0.009
 6834.00    0.51739   0.48681    0.009
 6835.00    0.49308   0.48658    0.009
 6836.00    0.46832   0.48641    0.009
 6837.00    0.51752   0.48636    0.009
 6838.00    0.57503   0.48646    0.009
 6839.00    0.54982   0.48657    0.009
 6840.00    0.51843   0.48670    0.010
 6841.00    0.43886   0.48671    0.009
 6842.00    0.35738   0.48651    0.009
 6843.00    0.43790   0.48620    0.009
 6844.00    0.51970   0.48586    0.009
 6845.00    0.60805   0.48547    0.009
 6846.00    0.68574   0.48506    0.009
 6847.00    0.58329   0.48465    0.009
 6848.00    0.48254   0.48419    0.009
 6849.00    0.39955   0.48357    0.009
 6850.00    0.33028   0.48302    0.009
 6851.00    0.36288   0.48271    0.009
 6852.00    0.39409   0.48258    0.009
 6853.00    0.41739   0.48246    0.009
 6854.00    0.46460   0.48242    0.009
 6855.00    0.61973   0.48231    0.009
 6856.00    0.74791   0.48207    0.009
 6857.00    0.77632   0.48206    0.009
 6858.00    0.78348   0.48218    0.009
 6859.00    0.72482   0.48236    0.009
 6860.00    0.63029   0.48241    0.009
 6861.00    0.44139   0.48247    0.009
 6862.00    0.33311   0.48247    0.009
 6863.00    0.40705   0.48243    0.009
 6864.00    0.47934   0.48260    0.009
 6865.00    0.54842   0.48284    0.009
 6866.00    0.57196   0.48312    0.009
 6867.00    0.51779   0.48325    0.009
 6868.00    0.48317   0.48351    0.009
 6869.00    0.47774   0.48367    0.009
 6870.00    0.48190   0.48379    0.009
 6871.00    0.49867   0.48404    0.009
 6872.00    0.51402   0.48428    0.009
 6873.00    0.52771   0.48463    0.009
 6874.00    0.46343   0.48482    0.009
 6875.00    0.31958   0.48517    0.009
 6876.00    0.28442   0.48543    0.009
 6877.00    0.34710   0.48571    0.009
 6878.00    0.37008   0.48613    0.009
 6879.00    0.36160   0.48661    0.009
 6880.00    0.40892   0.48711    0.009
 6881.00    0.49519   0.48748    0.009
 6882.00    0.49254   0.48790    0.009
 6883.00    0.43549   0.48821    0.009
 6884.00    0.41843   0.48852    0.009
 6885.00    0.42275   0.48877    0.009
 6886.00    0.43187   0.48901    0.009
 6887.00    0.44322   0.48917    0.009
 6888.00    0.44107   0.48917    0.009
 6889.00    0.43352   0.48928    0.009
 6890.00    0.43771   0.48930    0.009
 6891.00    0.44590   0.48936    0.009
 6892.00    0.42187   0.48948    0.009
 6893.00    0.38860   0.48956    0.009
 6894.00    0.43350   0.48962    0.009
 6895.00    0.49692   0.48964    0.009
 6896.00    0.43173   0.48967    0.009
 6897.00    0.34202   0.48974    0.009
 6898.00    0.44018   0.48971    0.009
 6899.00    0.56609   0.48960    0.009
 6900.00    0.40072   0.48942    0.009
 6901.00    0.20391   0.48911    0.009
 6902.00    0.24508   0.48878    0.009
 6903.00    0.30307   0.48843    0.009
 6904.00    0.34700   0.48800    0.009
 6905.00    0.39042   0.48760    0.009
 6906.00    0.36451   0.48721    0.009
 6907.00    0.34021   0.48671    0.009
 6908.00    0.37970   0.48639    0.009
 6909.00    0.41554   0.48599    0.009
 6910.00    0.39370   0.48579    0.009
 6911.00    0.37448   0.48564    0.009
 6912.00    0.38151   0.48531    0.009
 6913.00    0.38800   0.48524    0.009
 6914.00    0.39053   0.48489    0.009
 6915.00    0.39053   0.48481    0.009
 6916.00    0.37661   0.48468    0.009
 6917.00    0.35978   0.48463    0.009
 6918.00    0.33010   0.48469    0.009
 6919.00    0.30251   0.48445    0.009
 6920.00    0.28250   0.48447    0.009
 6921.00    0.30149   0.48429    0.009
 6922.00    0.43898   0.48444    0.009
 6923.00    0.54660   0.48450    0.009
 6924.00    0.57704   0.48462    0.009
 6925.00    0.54071   0.48484    0.009
 6926.00    0.35596   0.48477    0.009
 6927.00    0.28799   0.48487    0.009
 6928.00    0.44503   0.48472    0.009
 6929.00    0.51224   0.48487    0.009
 6930.00    0.42847   0.48493    0.009
 6931.00    0.38713   0.48488    0.009
 6932.00    0.40829   0.48482    0.009
 6933.00    0.42985   0.48448    0.009
 6934.00    0.45195   0.48429    0.009
 6935.00    0.44559   0.48394    0.009
 6936.00    0.40674   0.48386    0.010
 6937.00    0.34450   0.48377    0.010
 6938.00    0.25872   0.48355    0.009
 6939.00    0.28803   0.48338    0.009
 6940.00    0.41946   0.48312    0.009
 6941.00    0.48604   0.48301    0.009
 6942.00    0.50189   0.48301    0.009
 6943.00    0.50116   0.48311    0.009
 6944.00    0.48902   0.48328    0.009
 6945.00    0.49751   0.48344    0.009
 6946.00    0.51842   0.48365    0.009
 6947.00    0.53241   0.48393    0.010
 6948.00    0.54274   0.48420    0.010
 6949.00    0.52540   0.48456    0.009
 6950.00    0.49544   0.48495    0.009
 6951.00    0.48690   0.48543    0.009
 6952.00    0.48678   0.48585    0.009
 6953.00    0.38223   0.48616    0.009
 6954.00    0.24276   0.48644    0.009
 6955.00    0.39329   0.48661    0.009
 6956.00    0.62527   0.48676    0.010
 6957.00    0.58105   0.48682    0.009
 6958.00    0.47291   0.48685    0.009
 6959.00    0.42220   0.48664    0.009
 6960.00    0.38214   0.48623    0.009
 6961.00    0.37247   0.48557    0.009
 6962.00    0.36714   0.48491    0.009
 6963.00    0.46253   0.48437    0.010
 6964.00    0.56836   0.48358    0.010
 6965.00    0.48359   0.48273    0.010
 6966.00    0.38613   0.48175    0.009
 6967.00    0.37929   0.48089    0.009
 6968.00    0.37533   0.48004    0.009
 6969.00    0.23615   0.47937    0.009
 6970.00    0.10584   0.47928    0.009
 6971.00    0.24757   0.47921    0.009
 6972.00    0.38186   0.47920    0.009
 6973.00    0.40541   0.47933    0.009
 6974.00    0.42023   0.47965    0.009
 6975.00    0.35132   0.48026    0.009
 6976.00    0.29757   0.48093    0.009
 6977.00    0.34921   0.48162    0.009
 6978.00    0.41503   0.48229    0.010
 6979.00    0.55701   0.48268    0.010
 6980.00    0.64344   0.48307    0.010
 6981.00    0.49053   0.48344    0.010
 6982.00    0.40053   0.48370    0.010
 6983.00    0.53385   0.48380    0.010
 6984.00    0.60465   0.48359    0.010
 6985.00    0.48902   0.48341    0.010
 6986.00    0.40060   0.48320    0.009
 6987.00    0.38128   0.48289    0.009
 6988.00    0.37686   0.48252    0.010
 6989.00    0.40506   0.48191    0.010
 6990.00    0.37732   0.48131    0.009
 6991.00    0.24348   0.48087    0.009
 6992.00    0.17738   0.48054    0.009
 6993.00    0.22342   0.48017    0.009
 6994.00    0.25347   0.47955    0.009
 6995.00    0.26030   0.47907    0.009
 6996.00    0.28588   0.47871    0.009
 6997.00    0.33537   0.47851    0.009
 6998.00    0.41362   0.47836    0.009
 6999.00    0.52424   0.47809    0.010
 7000.00    0.56129   0.47785    0.010
 7001.00    0.52537   0.47740    0.010
 7002.00    0.44324   0.47716    0.010
 7003.00    0.32068   0.47714    0.010
 7004.00    0.23783   0.47702    0.010
 7005.00    0.18559   0.47675    0.010
 7006.00    0.21115   0.47611    0.010
 7007.00    0.28945   0.47585    0.010
 7008.00    0.32220   0.47603    0.010
 7009.00    0.32792   0.47610    0.010
 7010.00    0.32354   0.47617    0.010
 7011.00    0.31394   0.47615    0.010
 7012.00    0.34299   0.47619    0.010
 7013.00    0.38941   0.47624    0.010
 7014.00    0.39328   0.47642    0.010
 7015.00    0.38072   0.47694    0.010
 7016.00    0.41062   0.47748    0.010
 7017.00    0.45445   0.47778    0.009
 7018.00    0.44274   0.47800    0.010
 7019.00    0.41576   0.47837    0.010
 7020.00    0.42529   0.47881    0.010
 7021.00    0.44307   0.47930    0.010
 7022.00    0.41395   0.47965    0.010
 7023.00    0.37636   0.48002    0.010
 7024.00    0.30828   0.48043    0.010
 7025.00    0.23598   0.48089    0.010
 7026.00    0.31819   0.48152    0.010
 7027.00    0.41573   0.48205    0.010
 7028.00    0.29883   0.48229    0.010
 7029.00    0.16849   0.48279    0.010
 7030.00    0.29674   0.48363    0.010
 7031.00    0.43134   0.48451    0.010
 7032.00    0.30487   0.48530    0.010
 7033.00    0.18980   0.48587    0.010
 7034.00    0.38757   0.48634    0.010
 7035.00    0.56997   0.48657    0.010
 7036.00    0.53673   0.48689    0.010
 7037.00    0.49345   0.48715    0.010
 7038.00    0.35770   0.48701    0.010
 7039.00    0.23799   0.48651    0.010
 7040.00    0.22639   0.48553    0.009
 7041.00    0.23891   0.48449    0.009
 7042.00    0.37752   0.48311    0.010
 7043.00    0.48787   0.48145    0.010
 7044.00    0.47921   0.47975    0.010
 7045.00    0.46581   0.47776    0.010
 7046.00    0.43594   0.47594    0.010
 7047.00    0.39023   0.47409    0.010
 7048.00    0.29812   0.47223    0.010
 7049.00    0.22957   0.47046    0.010
 7050.00    0.21981   0.46864   -2.000
 7051.00    0.20574   0.46720   -2.000
 7052.00    0.18240   0.46607   -2.000
 7053.00    0.20427   0.46498   -2.000
 7054.00    0.31055   0.46425   -2.000
 7055.00    0.40368   0.46359   -2.000
 7056.00    0.47537   0.46299   -2.000
 7057.00    0.51150   0.46265   -2.000
 7058.00    0.49676   0.46234   -2.000
 7059.00    0.54259   0.46247   -2.000
 7060.00    0.66461   0.46276   -2.000
 7061.00    0.65588   0.46303   -2.000
 7062.00    0.50217   0.46336   -2.000
 7063.00    0.46079   0.46360   -2.000
 7064.00    0.52928   0.46397   -2.000
 7065.00    0.51988   0.46427   -2.000
 7066.00    0.44331   0.46454   -2.000
 7067.00    0.47986   0.46466   -2.000
 7068.00    0.60238   0.46454   -2.000
 7069.00    0.54624   0.46406   -2.000
 7070.00    0.37079   0.46339   -2.000
 7071.00    0.36921   0.46270   -2.000
 7072.00    0.46930   0.46159   -2.000
 7073.00    0.55053   0.46020   -2.000
 7074.00    0.62214   0.45846   -2.000
 7075.00    0.54758   0.45664   -2.000
 7076.00    0.40848   0.45503   -2.000
 7077.00    0.38882   0.45325   -2.000
 7078.00    0.41445   0.45139   -2.000
 7079.00    0.43237   0.44967   -2.000
 7080.00    0.44782   0.44789   -2.000
 7081.00    0.43184   0.44649   -2.000
 7082.00    0.40739   0.44546   -2.000
 7083.00    0.35522   0.44446   -2.000
 7084.00    0.29694   0.44406   -2.000
 7085.00    0.42221   0.44338   -2.000
 7086.00    0.57973   0.44314   -2.000
 7087.00    0.53556   0.44317   -2.000
 7088.00    0.46437   0.44315   -2.000
 7089.00    0.37616   0.44387   -2.000
 7090.00    0.28634   0.44406   -2.000
 7091.00    0.35309   0.44459   -2.000
 7092.00    0.42902   0.44492   -2.000
 7093.00    0.38168   0.44521   -2.000
 7094.00    0.33180   0.44589   -2.000
 7095.00    0.35049   0.44614   -2.000
 7096.00    0.36640   0.44653   -2.000
 7097.00    0.31335   0.44662   -2.000
 7098.00    0.26358   0.44675   -2.000
 7099.00    0.25735   0.44693   -2.000
 7100.00    0.26231   0.44688   -2.000
 7101.00    0.36653   0.44699   -2.000
 7102.00    0.45701   0.44692   -2.000
 7103.00    0.45778   0.44694   -2.000
 7104.00    0.44081   0.44692   -2.000
 7105.00    0.33352   0.44683   -2.000
 7106.00    0.25822   0.44690   -2.000
 7107.00    0.31454   0.44668   -2.000
 7108.00    0.36107   0.44658   -2.000
 7109.00    0.37423   0.44644   -2.000
 7110.00    0.41647   0.44612   -2.000
 7111.00    0.54228   0.44580   -2.000
 7112.00    0.58388   0.44513   -2.000
 7113.00    0.41886   0.44467   -2.000
 7114.00    0.29752   0.44412   -2.000
 7115.00    0.26863   0.44324   -2.000
 7116.00    0.28293   0.44241   -2.000
 7117.00    0.37667   0.44153   -2.000
 7118.00    0.41086   0.44082   -2.000
 7119.00    0.34937   0.44019   -2.000
 7120.00    0.46570   0.43947   -2.000
 7121.00    0.83272   0.43891   -2.000
 7122.00    0.95932   0.43857   -2.000
 7123.00    0.78773   0.43825   -2.000
 7124.00   -0.13859   0.43824   -2.000
 7125.00   -1.89008   0.43834   -2.000
 7126.00   -1.78740   0.43857   -2.000
 7127.00    0.10338   0.43888   -2.000
 7128.00    0.90631   0.43900   -2.000
 7129.00    0.78414   0.43947   -2.000
 7130.00    0.73537   0.43986   -2.000
 7131.00    0.74154   0.44027   -2.000
 7132.00    0.66956   0.44056   -2.000
 7133.00    0.54615   0.44054   -2.000
 7134.00    0.57001   0.44088   -2.000
 7135.00    0.67870   0.44103   -2.000
 7136.00    0.58626   0.44121   -2.000
 7137.00    0.39289   0.44142   -2.000
 7138.00    0.30951   0.44147   -2.000
 7139.00    0.27390   0.44185   -2.000
 7140.00    0.31110   0.44197   -2.000
 7141.00    0.37541   0.44235   -2.000
 7142.00    0.40947   0.44307   -2.000
 7143.00    0.43397   0.44346   -2.000
 7144.00    0.39832   0.44403   -2.000
 7145.00    0.34681   0.44420   -2.000
 7146.00    0.27425   0.44461   -2.000
 7147.00    0.19716   0.44538   -2.000
 7148.00    0.22129   0.44537   -2.000
 7149.00    0.26273   0.44553   -2.000
 7150.00    0.35935   0.44512   -2.000
 7151.00    0.46310   0.44482   -2.000
 7152.00    0.33174   0.44483   -2.000
 7153.00    0.17903   0.44421   -2.000
 7154.00    0.30376   0.44399   -2.000
 7155.00    0.44367   0.44320   -2.000
 7156.00    0.31960   0.44262   -2.000
 7157.00    0.19339   0.44243   -2.000
 7158.00    0.37757   0.44219   -2.000
 7159.00    0.53180   0.44239   -2.000
 7160.00    0.00649   0.44206   -2.000
 7161.00   -0.43729   0.44181   -2.000
 7162.00    0.14583   0.44185   -2.000
 7163.00    0.65033   0.44213   -2.000
 7164.00    0.48413   0.44247   -2.000
 7165.00    0.40999   0.44237   -2.000
 7166.00    0.91935   0.44201   -2.000
 7167.00    1.24472   0.44169   -2.000
 7168.00    0.65656   0.44162   -2.000
 7169.00    0.22832   0.44144   -2.000
 7170.00    0.44377   0.44112   -2.000
 7171.00    0.58139   0.44050   -2.000
 7172.00    0.45902   0.43965   -2.000
 7173.00    0.33031   0.43913   -2.000
 7174.00    0.18370   0.43862   -2.000
 7175.00    0.12482   0.43835   -2.000
 7176.00    0.27751   0.43795   -2.000
 7177.00    0.40571   0.43707   -2.000
 7178.00    0.48291   0.43664   -2.000
 7179.00    0.50135   0.43622   -2.000
 7180.00    0.41338   0.43621   -2.000
 7181.00    0.26752   0.43629   -2.000
 7182.00    0.03005   0.43588   -2.000
 7183.00    0.02038   0.43593   -2.000
 7184.00    0.32724   0.43578   -2.000
 7185.00    0.34616   0.43595   -2.000
 7186.00    0.01300   0.43626   -2.000
 7187.00   -0.09448   0.43617   -2.000
 7188.00    0.04131   0.43645   -2.000
 7189.00    0.13276   0.43629   -2.000
 7190.00    0.18206   0.43639   -2.000
 7191.00    0.34369   0.43655   -2.000
 7192.00    0.59948   0.43630   -2.000
 7193.00    0.57764   0.43631   -2.000
 7194.00    0.35087   0.43585   -2.000
 7195.00    0.30006   0.43582   -2.000
 7196.00    0.36333   0.43600   -2.000
 7197.00    0.50895   0.43570   -2.000
 7198.00    0.70130   0.43568   -2.000
 7199.00    0.42735   0.43527   -2.000
 7200.00   -0.07688   0.43542   -2.000
 7201.00   -0.08546   0.43597   -2.000
 7202.00    0.11760   0.43617   -2.000
 7203.00    0.56703   0.43660   -2.000
 7204.00    1.10661   0.43667   -2.000
 7205.00    1.07315   0.43713   -2.000
 7206.00    0.86217   0.43787   -2.000
 7207.00    0.44401   0.43848   -2.000
 7208.00   -0.02762   0.43917   -2.000
 7209.00    0.10743   0.43961   -2.000
 7210.00    0.37010   0.44021   -2.000
 7211.00    0.24568   0.44077   -2.000
 7212.00    0.05698   0.44148   -2.000
 7213.00    0.13231   0.44210   -2.000
 7214.00    0.24065   0.44268   -2.000
 7215.00    0.18552   0.44335   -2.000
 7216.00    0.11623   0.44382   -2.000
 7217.00    0.22591   0.44463   -2.000
 7218.00    0.34468   0.44521   -2.000
