###################################################################
## OUTPUT of StarlightChains_v04.for    [Cid@UFSC - 01/Apr/2007] ##
###################################################################

## Some input info
KUG0210-078._55_29.txt                   [arq_obs]
Base.CB07.vall.4m                        [arq_base]
Masks.EmLines.NEW.gm                     [arq_masks]
StCv04.C11.config                        [arq_config]
   66                                    [N_base]
    0                                    [N_YAV_components = # of components with extra extinction!]
    0                                    [i_FitPowerLaw (1/0 = Yes/No)]
-9.99                                    [alpha_PowerLaw]
CCM                                      [red_law_option]
 1.458241                                [q_norm = A(l_norm)/A(V)]

## (Re)Sampling Parameters
 3741.00                                 [l_ini (A)]
 7218.00                                 [l_fin (A)]
    1.00                                 [dl    (A)]     (OBS: dl_cushion =    50.00 A)

## Normalization info
 4020.00                                 [l_norm (A) - for base]
 4010.00                                 [llow_norm (A) - window for f_obs]
 4060.00                                 [lupp_norm (A) - window for f_obs]
1.106395E-17                             [fobs_norm (in input units)]

## S/N
 3691.00                                 [llow_SN (A) - window for S/N]
 7268.00                                 [lupp_SN (A) - window for S/N]
   1.740                                 [S/N in S/N window]
   3.044                                 [S/N in norm. window]
   0.008                                 [S/N_err in S/N window]
   0.013                                 [S/N_err in norm. window]
  1.0000                                 [fscale_chi2]

## etc...
    -2008014                             [idum_orig]
  2370                                   [NOl_eff]
  2235                                   [Nl_eff]
   135    NSIGMA                         [Ntot_cliped & clip_method]
  7423010                                [Nglobal_steps]
   7                                     [N_chains]
  44                                     [NEX0s_base = N_base in EX0s-fits]
 0   0   1      135   2.0   5.670E+03    [Clip-Bug, RC-Crash & Burn-In warning-flags, n_censored_weights, wei_nsig_threshold & wei_limit]
    65     63.877     62.911      0.966  [idt_all, wdt_TotTime, wdt_UsrTime & wdt_SysTime (sec)]

## Synthesis Results - Best model ##

 3.97078E-05                             [chi2/Nl_eff]
    38.30181                             [adev (%)]

   118.70061                             [sum-of-x (%)]
 3.42821E-18                             [Flux_tot (units of input spectrum!)]
 4.67318E-14                             [Mini_tot (???)]
 2.48266E-14                             [Mcor_tot (???)]

-192.23                                  [v0_min  (km/s)]
  53.07                                  [vd_min  (km/s)]
-1.0000                                  [AV_min  (mag)]
 0.0000                                  [YAV_min (mag)]

# j     x_j(%)      Mini_j(%)     Mcor_j(%)     age_j(yr)     Z_j      (L/M)_j    YAV?  Mstars   component_j        a/Fe...       SSP_chi2r SSP_adev(%)   SSP_AV   SSP_x(%)
  1     15.1492     8.5580E-02    1.6109E-01    1.000000E+06  0.00400  1.094E-02    0   1.0000   age020_m42            0.0000     4.0593E-05    36.5494   1.0058   110.6360
  2      0.0000     0.0000E+00    0.0000E+00    3.160000E+06  0.00400  4.007E-02    0   0.9999   age045_m42            0.0000     4.0999E-05    36.8693   0.3681   114.1557
  3      0.0000     0.0000E+00    0.0000E+00    5.010000E+06  0.00400  2.539E-02    0   0.9488   age055_m42            0.0000     4.0562E-05    36.6230   0.6549   112.9844
  4      0.0000     0.0000E+00    0.0000E+00    6.610000E+06  0.00400  2.620E-02    0   0.9220   age061_m42            0.0000     4.0699E-05    36.7806   0.3060   114.0030
  5      0.0000     0.0000E+00    0.0000E+00    1.000000E+07  0.00400  1.322E-02    0   0.8862   age070_m42            0.0000     4.0502E-05    37.3560   0.1058   114.8109
  6      0.6795     5.3273E-03    8.5948E-03    1.445000E+07  0.00400  7.883E-03    0   0.8571   age078_m42            0.0000     4.0371E-05    37.1183   0.3946   113.3323
  7      7.4667     8.7880E-02    1.3521E-01    2.512000E+07  0.00400  5.251E-03    0   0.8174   age090_m42            0.0000     4.0402E-05    37.5220  -0.0047   114.8606
  8      0.3276     5.5476E-03    8.1984E-03    4.000000E+07  0.00400  3.649E-03    0   0.7851   age104_m42            0.0000     4.0374E-05    37.4297  -0.2349   115.4756
  9      0.0000     0.0000E+00    0.0000E+00    5.500000E+07  0.00400  3.098E-03    0   0.7629   age110_m42            0.0000     4.0585E-05    37.2100  -0.0995   115.5895
 10      0.0000     0.0000E+00    0.0000E+00    1.015200E+08  0.00400  2.228E-03    0   0.7207   age116_m42            0.0000     4.0731E-05    37.0897  -0.0868   115.6457
 11      1.4113     7.9802E-02    9.9862E-02    2.861200E+08  0.00400  1.093E-03    0   0.6648   age125_m42            0.0000     4.0834E-05    37.7821  -0.6049   117.1113
 12      0.0990     9.2768E-03    1.1115E-02    5.088000E+08  0.00400  6.597E-04    0   0.6365   age130_m42            0.0000     4.1029E-05    37.3803  -0.6374   118.2378
 13      0.0000     0.0000E+00    0.0000E+00    1.434000E+09  0.00400  2.132E-04    0   0.5798   age139_m42            0.0000     4.2289E-05    50.6627  -1.0000   112.6291
 14      0.0000     0.0000E+00    0.0000E+00    4.250000E+09  0.00400  5.895E-05    0   0.5377   age158_m42            0.0000     4.7049E-05    67.0364  -1.0000   102.4597
 15      0.0000     0.0000E+00    0.0000E+00    7.500000E+09  0.00400  3.510E-05    0   0.5212   age171_m42            0.0000     5.0341E-05    73.8084  -1.0000    98.3676
 16      0.0000     0.0000E+00    0.0000E+00    1.300000E+10  0.00400  2.005E-05    0   0.5034   age193_m42            0.0000     5.3795E-05    79.6006  -1.0000    94.5925
 17      0.0000     0.0000E+00    0.0000E+00    1.800000E+10  0.00400  1.525E-05    0   0.4967   age213_m42            0.0000     5.4254E-05    80.6347  -1.0000    93.7737
 18      0.0000     0.0000E+00    0.0000E+00    1.000000E+06  0.00800  1.238E-02    0   1.0000   age020_m52            0.0000     4.0679E-05    36.5582   0.9993   110.9150
 19      0.0000     0.0000E+00    0.0000E+00    3.160000E+06  0.00800  3.074E-02    0   0.9966   age045_m52            0.0000     4.0675E-05    36.5513   0.9254   111.7478
 20      0.0000     0.0000E+00    0.0000E+00    5.010000E+06  0.00800  2.668E-02    0   0.9443   age055_m52            0.0000     4.0496E-05    36.5788   0.7258   112.5698
 21      0.0000     0.0000E+00    0.0000E+00    6.610000E+06  0.00800  2.136E-02    0   0.9177   age061_m52            0.0000     4.0182E-05    36.9310  -0.4315   117.0811
 22      1.5527     7.8980E-03    1.3123E-02    1.000000E+07  0.00800  1.215E-02    0   0.8827   age070_m52            0.0000     4.0531E-05    37.6696   0.2902   114.8293
 23      0.0000     0.0000E+00    0.0000E+00    1.445000E+07  0.00800  8.717E-03    0   0.8552   age078_m52            0.0000     4.0444E-05    37.2188   0.3703   114.4865
 24      0.0000     0.0000E+00    0.0000E+00    2.512000E+07  0.00800  5.592E-03    0   0.8162   age090_m52            0.0000     4.0468E-05    37.1465  -0.0001   116.6508
 25      0.0000     0.0000E+00    0.0000E+00    4.000000E+07  0.00800  3.896E-03    0   0.7841   age104_m52            0.0000     4.0450E-05    37.6454  -0.0266   116.4876
 26      0.0000     0.0000E+00    0.0000E+00    1.015200E+08  0.00800  2.148E-03    0   0.7226   age116_m52            0.0000     4.0414E-05    37.3071  -0.1040   116.2230
 27      0.0000     0.0000E+00    0.0000E+00    2.861200E+08  0.00800  9.925E-04    0   0.6683   age125_m52            0.0000     4.0735E-05    37.3337  -0.5724   119.3024
 28      0.0000     0.0000E+00    0.0000E+00    9.047900E+08  0.00800  3.141E-04    0   0.6138   age135_m52            0.0000     4.1969E-05    43.8771  -1.0000   119.3709
 29      0.0000     0.0000E+00    0.0000E+00    1.434000E+09  0.00800  1.719E-04    0   0.5853   age139_m52            0.0000     4.5593E-05    63.0989  -1.0000   108.5412
 30      0.0000     0.0000E+00    0.0000E+00    2.500000E+09  0.00800  7.872E-05    0   0.5600   age150_m52            0.0000     5.0301E-05    72.9433  -1.0000   101.3076
 31      0.0121     1.7276E-02    1.7645E-02    4.250000E+09  0.00800  4.336E-05    0   0.5426   age158_m52            0.0000     5.0776E-05    73.5753  -1.0000   100.1765
 32      0.4850     9.4892E-01    9.5007E-01    6.250000E+09  0.00800  3.159E-05    0   0.5319   age166_m52            0.0000     5.5169E-05    80.4174  -1.0000    95.9863
 33      0.0000     0.0000E+00    0.0000E+00    1.300000E+10  0.00800  1.361E-05    0   0.5073   age193_m52            0.0000     6.7306E-05    95.6728  -1.0000    84.8491
 34      0.0000     0.0000E+00    0.0000E+00    1.800000E+10  0.00800  9.886E-06    0   0.4990   age213_m52            0.0000     7.1428E-05    98.3938  -1.0000    81.7619
 35      0.0139     5.5588E-05    1.0464E-04    1.000000E+06  0.02000  1.544E-02    0   1.0000   age020_m62            0.0000     4.0788E-05    36.5889   0.9929   111.3039
 36      0.0000     0.0000E+00    0.0000E+00    3.160000E+06  0.02000  3.762E-02    0   0.9858   age045_m62            0.0000     4.0844E-05    36.5665   0.9276   112.4341
 37      9.0319     1.6935E-02    2.9780E-02    5.010000E+06  0.02000  3.296E-02    0   0.9342   age055_m62            0.0000     4.0662E-05    36.6629   0.6207   113.9514
 38      0.0000     0.0000E+00    0.0000E+00    8.710000E+06  0.02000  1.154E-02    0   0.8861   age067_m62            0.0000     4.0689E-05    40.0187  -0.1583   116.7004
 39      2.1667     1.7474E-02    2.7866E-02    1.445000E+07  0.02000  7.663E-03    0   0.8472   age078_m62            0.0000     4.0439E-05    38.4560  -0.0333   116.7408
 40      3.2318     4.4071E-02    6.7186E-02    2.512000E+07  0.02000  4.532E-03    0   0.8099   age090_m62            0.0000     4.0198E-05    38.6558  -0.0240   115.8399
 41     35.1519     7.9489E-01    1.1364E+00    5.500000E+07  0.02000  2.733E-03    0   0.7595   age110_m62            0.0000     4.0103E-05    37.5516  -0.0476   116.0103
 42      0.0737     3.3254E-03    4.3723E-03    1.609000E+08  0.02000  1.369E-03    0   0.6985   age120_m62            0.0000     4.0573E-05    37.3574  -0.2069   117.9769
 43      0.0167     1.1431E-03    1.4447E-03    2.861200E+08  0.02000  9.013E-04    0   0.6714   age125_m62            0.0000     4.0966E-05    37.3369  -0.4528   120.5055
 44      0.1295     1.5911E-02    1.9315E-02    5.088000E+08  0.02000  5.028E-04    0   0.6449   age130_m62            0.0000     4.1714E-05    37.2106  -0.8897   124.2977
 45      4.2798     1.0894E+00    1.2670E+00    9.047900E+08  0.02000  2.428E-04    0   0.6179   age135_m62            0.0000     4.2230E-05    45.5500  -1.0000   118.4484
 46      0.0000     0.0000E+00    0.0000E+00    1.434000E+09  0.02000  1.263E-04    0   0.5908   age139_m62            0.0000     4.5636E-05    60.3240  -1.0000   110.2396
 47      0.0000     0.0000E+00    0.0000E+00    2.500000E+09  0.02000  5.985E-05    0   0.5673   age150_m62            0.0000     5.1570E-05    73.3476  -1.0000   102.2305
 48      0.0000     0.0000E+00    0.0000E+00    4.250000E+09  0.02000  3.271E-05    0   0.5468   age158_m62            0.0000     5.8494E-05    83.3509  -1.0000    94.8819
 49      0.0625     2.8399E-01    2.7621E-01    1.000000E+10  0.02000  1.360E-05    0   0.5167   age181_m62            0.0000     6.8779E-05    93.9113  -1.0000    86.2633
 50      0.0038     3.2713E-02    3.0868E-02    1.800000E+10  0.02000  7.124E-06    0   0.5013   age213_m62            0.0000     7.6475E-05    99.4585  -1.0000    80.3550
 51      0.0000     0.0000E+00    0.0000E+00    1.000000E+06  0.05000  2.592E-02    0   0.9998   age020_m72            0.0000     4.0927E-05    36.6161   0.9756   111.6765
 52      0.0486     6.1961E-05    1.1170E-04    3.160000E+06  0.05000  4.845E-02    0   0.9577   age045_m72            0.0000     4.0559E-05    36.5277   0.8285   112.9285
 53      0.0000     0.0000E+00    0.0000E+00    5.010000E+06  0.05000  3.072E-02    0   0.9147   age055_m72            0.0000     4.0566E-05    37.7216   0.4638   114.8375
 54      3.7093     1.5755E-02    2.6326E-02    6.610000E+06  0.05000  1.455E-02    0   0.8877   age061_m72            0.0000     4.1200E-05    42.4428  -0.0825   116.9537
 55      0.0910     6.1966E-04    9.9425E-04    1.000000E+07  0.05000  9.074E-03    0   0.8524   age070_m72            0.0000     4.0666E-05    38.3668   0.6380   114.4725
 56      7.2335     1.0519E-01    1.5646E-01    2.512000E+07  0.05000  4.250E-03    0   0.7902   age090_m72            0.0000     4.0271E-05    38.2192   0.3927   114.5978
 57      0.0000     0.0000E+00    0.0000E+00    4.000000E+07  0.05000  3.087E-03    0   0.7618   age104_m72            0.0000     4.0330E-05    38.5739   0.1985   115.2948
 58      0.0000     0.0000E+00    0.0000E+00    1.015200E+08  0.05000  1.700E-03    0   0.7096   age116_m72            0.0000     4.0580E-05    37.7818  -0.0457   117.2455
 59      0.0141     1.1771E-03    1.4697E-03    2.861200E+08  0.05000  7.384E-04    0   0.6633   age125_m72            0.0000     4.1287E-05    37.2351  -0.6180   122.5476
 60      0.1929     3.1219E-02    3.7444E-02    5.088000E+08  0.05000  3.819E-04    0   0.6372   age130_m72            0.0000     4.1301E-05    38.2664  -1.0000   124.0570
 61      0.0000     0.0000E+00    0.0000E+00    9.047900E+08  0.05000  1.676E-04    0   0.6110   age135_m72            0.0000     4.5403E-05    57.2662  -1.0000   112.8724
 62      4.3949     3.0736E+00    3.3984E+00    1.434000E+09  0.05000  8.837E-05    0   0.5874   age139_m72            0.0000     5.1823E-05    73.3157  -1.0000   103.6563
 63      0.0378     5.5182E-02    5.8147E-02    2.500000E+09  0.05000  4.233E-05    0   0.5598   age150_m72            0.0000     5.9076E-05    83.2927  -1.0000    95.6913
 64     21.6335     9.3170E+01    9.2055E+01    6.250000E+09  0.05000  1.435E-05    0   0.5249   age166_m72            0.0000     7.2263E-05    96.6871  -1.0000    83.5556
 65      0.0000     0.0000E+00    0.0000E+00    1.300000E+10  0.05000  6.513E-06    0   0.5036   age193_m72            0.0000     8.2766E-05   103.6044  -1.0000    77.1359
 66      0.0000     0.0000E+00    0.0000E+00    1.800000E+10  0.05000  4.527E-06    0   0.4945   age213_m72            0.0000     8.9623E-05   106.8670  -1.0000    72.7087


## Synthesis Results - Average & Chains ##

# j      x_j: min, <> & last-chain-values for 1 ...  7 chains
  1     15.1492      0.2575      0.8923      0.4193      0.5240      1.0540      0.7605      0.7906      0.8014
  2      0.0000      0.1937      0.2943      0.2324      0.7051      0.5343      0.3052      0.0000      0.5720
  3      0.0000      0.1480      0.5386      0.0741      0.1906      0.0000      0.1209      0.0206      0.4203
  4      0.0000      0.1517      0.0000      0.9124      0.5085      0.2246      0.3985      0.1153      0.3053
  5      0.0000      0.1953      1.1236      0.4098      0.7149      0.1428      0.8431      0.0553      0.1240
  6      0.6795      0.2054      0.2578      1.0486      0.7003      1.1557      0.0000      1.1079      0.2574
  7      7.4667      0.2197      0.1042      0.0623      0.2282      0.7496      0.1485      0.9213      1.0451
  8      0.3276      0.2023      0.0634      0.3268      0.7760      0.1578      0.3085      0.3953      0.0331
  9      0.0000      0.2731      0.3407      0.3740      0.0000      0.0000      0.0550      0.3697      0.1288
 10      0.0000      0.2819      0.2974      0.0000      0.5134      0.0000      0.1169      1.5026      0.1253
 11      1.4113      0.1921      0.6432      0.0000      0.1067      0.2102      0.0000      0.6917      0.1475
 12      0.0990      0.2123      1.1427      0.1452      0.2695      0.2098      0.0694      1.0294      0.3906
 13      0.0000      0.1366      0.4944      1.2451      0.0000      0.0000      0.0337      0.0000      0.0000
 14      0.0000      0.2536      1.0756      0.3703      0.2839      0.3791      0.0000      0.7426      0.0000
 15      0.0000      0.1722      0.1895      0.8697      0.3731      0.0504      0.0858      0.2456      0.6149
 16      0.0000      0.1473      0.5247      0.1934      0.4490      0.2588      0.0000      0.0000      0.0000
 17      0.0000      0.1947      0.5114      0.4574      0.0980      0.9983      0.5116      1.0904      0.0053
 18      0.0000      0.1639      0.8976      0.2536      0.0000      0.2930      0.3971      0.6790      0.0000
 19      0.0000      0.2125      0.1363      0.4349      0.3073      1.1990      0.3131      0.0000      0.4000
 20      0.0000      0.1911      0.0726      0.0690      0.3208      0.0145      1.1155      0.0663      0.0000
 21      0.0000      0.1884      0.6791      0.0000      0.2026      0.9679      0.8276      0.1998      0.3154
 22      1.5527      0.1992      0.0000      0.3543      0.5025      0.6561      0.6345      0.4183      0.1122
 23      0.0000      0.1947      0.0000      0.0000      0.2507      0.3419      0.8904      0.1375      0.6705
 24      0.0000      0.2252      0.3074      0.2312      0.0000      0.0000      0.7094      0.9328      0.7385
 25      0.0000      0.2225      1.3192      0.8521      0.4130      0.3557      0.6975      0.4112      0.8109
 26      0.0000      0.1930      0.5008      0.5842      0.4711      0.0000      0.2087      0.0000      0.0154
 27      0.0000      0.2564      0.1788      1.0681      0.0247      0.0000      1.0400      1.5451      0.7425
 28      0.0000      0.2262      0.9955      0.1939      0.8573      0.8921      0.0000      0.3101      0.0120
 29      0.0000      0.1449      0.3935      0.4208      0.3499      0.1851      0.0000      0.4953      0.2421
 30      0.0000      0.1895      0.0000      0.0831      0.1688      0.0000      0.2928      0.0000      0.0000
 31      0.0121      0.1884      0.0872      0.2371      0.7013      0.3022      0.0000      0.4424      0.7661
 32      0.4850      0.1570      0.0000      0.0000      0.5986      0.7500      0.3557      0.2547      0.6774
 33      0.0000      0.1693      0.0354      0.0324      0.0000      0.2823      1.2658      0.2020      0.2282
 34      0.0000      0.1343      0.2884      0.4657      0.2648      0.3071      0.1085      0.0000      0.3382
 35      0.0139      0.2307      1.1731      0.1022      0.4900      0.0000      0.6541      0.3344      1.0153
 36      0.0000      0.2454      0.0691      1.0574      0.0000      0.3607      0.2220      1.5430      0.8902
 37      9.0319      0.1669      0.5434      0.2532      0.8901      0.2469      0.5065      0.7971      0.5519
 38      0.0000      0.1770      0.4903      0.4454      0.2308      0.8336      0.6173      0.0000      0.4990
 39      2.1667      0.1672      0.8980      0.1282      0.1668      0.0000      0.5416      0.5083      0.1393
 40      3.2318      0.2311      0.3470      1.2145      0.9713      0.0000      0.1296      0.4329      1.1690
 41     35.1519      0.1969      0.2334      2.3604      0.5216      0.0698      0.2351      0.3093      0.0000
 42      0.0737      0.2359      0.2860      0.0000      0.0783      0.4065      1.1868      0.5998      0.0765
 43      0.0167      0.2208      0.0000      0.2794      1.3150      0.5062      1.6319      1.1826      0.0000
 44      0.1295      0.1762      0.0672      0.4669      1.1631      0.4032      0.0000      0.9621      0.3162
 45      4.2798      0.1611      0.8489      0.4416      0.0606      0.0000      0.2967      0.3563      0.5703
 46      0.0000      0.2134      0.6745      0.2990      0.0000      0.7269      0.0000      0.6714      0.8549
 47      0.0000      0.1928      1.5647      0.9095      0.4242      0.6004      0.4705      0.0000      0.3241
 48      0.0000      0.1959      0.9851      0.1992      0.0000      0.4178      0.2065      0.0567      0.0000
 49      0.0625     53.2713     39.3549     43.4656     43.9203     43.4477     42.8160     40.9042     43.8599
 50      0.0038      9.9298      8.1634      8.1599      9.8438     10.1534     10.0330      8.5718      9.7453
 51      0.0000      0.1886      0.6282      0.0000      0.7494      0.0000      0.0000      0.8495      0.6117
 52      0.0486      0.2328      0.0000      1.5065      0.0000      0.0614      0.2803      0.3944      0.9135
 53      0.0000      0.1820      0.3613      0.6218      0.0000      0.7527      0.1709      0.0209      0.7311
 54      3.7093      0.2110      0.7058      0.6862      0.7015      0.5920      0.3522      0.5196      0.0177
 55      0.0910      0.1615      0.4832      0.7417      0.5713      0.0000      0.6094      0.2812      0.3607
 56      7.2335      0.2484      0.0004      0.1429      0.0644      0.0466      0.6038      1.5636      0.0498
 57      0.0000      0.1436      0.0000      0.1779      0.8131      0.2694      1.0938      0.2465      0.1703
 58      0.0000      0.2295      0.1905      0.6403      0.5116      0.5610      0.2443      1.4219      0.1951
 59      0.0141      0.2190      0.0000      0.3900      0.0000      0.8715      0.0000      0.2511      0.1992
 60      0.1929      0.2185      0.8366      0.0214      0.0000      0.6639      0.5185      0.3128      0.1733
 61      0.0000      9.8293      8.7359      8.0061      9.5679      9.7896      8.2316      5.7512     10.1435
 62      4.3949      0.2003      0.7578      0.4830      0.0279      0.2930      0.0000      0.3270      1.0083
 63      0.0378      0.6351      0.8332      0.2803      0.6622      0.5802      0.6958      0.7485      0.0655
 64     21.6335      0.1810      0.5328      0.1554      0.1112      0.7982      0.0000      0.6031      0.1728
 65      0.0000      0.1878      1.3134      0.0000      0.2821      0.0000      0.1656      0.2161      0.0000
 66      0.0000      0.2360      0.5410      0.0000      0.3223      0.0000      0.5474      0.0993      0.0000

# j      m_j: min, <> & last-chain-values for 1 ...  7 chains
  1  1.6109E-01  8.2300E-04  3.3941E-03  1.6271E-03  1.8902E-03  3.7808E-03  2.7401E-03  3.1164E-03  2.9640E-03
  2  0.0000E+00  1.6898E-04  3.0556E-04  2.4616E-04  6.9430E-04  5.2324E-04  3.0021E-04  0.0000E+00  5.7751E-04
  3  0.0000E+00  1.9341E-04  8.3747E-04  1.1757E-04  2.8108E-04  0.0000E+00  1.7809E-04  3.3131E-05  6.3556E-04
  4  0.0000E+00  1.8667E-04  0.0000E+00  1.3630E-03  7.0620E-04  3.1023E-04  5.5276E-04  1.7500E-04  4.3464E-04
  5  0.0000E+00  4.5789E-04  3.1342E-03  1.1661E-03  1.8911E-03  3.7563E-04  2.2276E-03  1.5978E-04  3.3632E-04
  6  8.5948E-03  7.8090E-04  1.1662E-03  4.8397E-03  3.0047E-03  4.9312E-03  0.0000E+00  5.1951E-03  1.1323E-03
  7  1.3521E-01  1.1958E-03  6.7474E-04  4.1179E-04  1.4019E-03  4.5794E-03  9.1118E-04  6.1846E-03  6.5827E-03
  8  8.1984E-03  1.5221E-03  5.6748E-04  2.9844E-03  6.5889E-03  1.3323E-03  2.6164E-03  3.6681E-03  2.8803E-04
  9  0.0000E+00  2.3520E-03  3.4912E-03  3.9100E-03  0.0000E+00  0.0000E+00  5.3432E-04  3.9267E-03  1.2835E-03
 10  0.0000E+00  3.1891E-03  4.0028E-03  0.0000E+00  6.5530E-03  0.0000E+00  1.4906E-03  2.0961E-02  1.6397E-03
 11  9.9862E-02  4.0862E-03  1.6280E-02  0.0000E+00  2.5615E-03  5.0182E-03  0.0000E+00  1.8145E-02  3.6300E-03
 12  1.1115E-02  7.1623E-03  4.5879E-02  5.9467E-03  1.0261E-02  7.9440E-03  2.6405E-03  4.2832E-02  1.5250E-02
 13  0.0000E+00  1.2986E-02  5.5944E-02  1.4374E-01  0.0000E+00  0.0000E+00  3.6164E-03  0.0000E+00  0.0000E+00
 14  0.0000E+00  8.0875E-02  4.0826E-01  1.4338E-01  1.0218E-01  1.3570E-01  0.0000E+00  2.9210E-01  0.0000E+00
 15  0.0000E+00  8.9418E-02  1.1708E-01  5.4819E-01  2.1866E-01  2.9387E-02  5.0216E-02  1.5731E-01  3.6943E-01
 16  0.0000E+00  1.2933E-01  5.4822E-01  2.0611E-01  4.4489E-01  2.5495E-01  0.0000E+00  0.0000E+00  0.0000E+00
 17  0.0000E+00  2.2171E-01  6.9308E-01  6.3234E-01  1.2593E-01  1.2760E+00  6.5679E-01  1.5317E+00  6.9774E-03
 18  0.0000E+00  4.6286E-04  3.0169E-03  8.6967E-04  0.0000E+00  9.2883E-04  1.2643E-03  2.3654E-03  0.0000E+00
 19  0.0000E+00  2.4088E-04  1.8389E-04  5.9854E-04  3.9316E-04  1.5255E-03  4.0014E-04  0.0000E+00  5.2475E-04
 20  0.0000E+00  2.3647E-04  1.0695E-04  1.0360E-04  4.4813E-04  2.0188E-05  1.5562E-03  1.0127E-04  0.0000E+00
 21  0.0000E+00  2.8303E-04  1.2141E-03  0.0000E+00  3.4344E-04  1.6319E-03  1.4015E-03  3.7026E-04  5.4820E-04
 22  1.3123E-02  5.0607E-04  0.0000E+00  1.0926E-03  1.4405E-03  1.8706E-03  1.8168E-03  1.3107E-03  3.2994E-04
 23  0.0000E+00  6.6793E-04  0.0000E+00  0.0000E+00  9.7074E-04  1.3164E-03  3.4432E-03  5.8179E-04  2.6616E-03
 24  0.0000E+00  1.1492E-03  1.8670E-03  1.4327E-03  0.0000E+00  0.0000E+00  4.0814E-03  5.8717E-03  4.3612E-03
 25  0.0000E+00  1.5659E-03  1.1048E-02  7.2797E-03  3.2803E-03  2.8096E-03  5.5329E-03  3.5687E-03  6.6033E-03
 26  0.0000E+00  2.2702E-03  7.0102E-03  8.3430E-03  6.2540E-03  0.0000E+00  2.7679E-03  0.0000E+00  2.1027E-04
 27  0.0000E+00  6.0373E-03  5.0110E-03  3.0530E-02  6.5542E-04  0.0000E+00  2.7602E-02  4.4869E-02  2.0229E-02
 28  0.0000E+00  1.5459E-02  8.0952E-02  1.6081E-02  6.6114E-02  6.8415E-02  0.0000E+00  2.6134E-02  9.5110E-04
 29  0.0000E+00  1.7258E-02  5.5757E-02  6.0826E-02  4.7018E-02  2.4727E-02  0.0000E+00  7.2724E-02  3.3357E-02
 30  0.0000E+00  4.7149E-02  0.0000E+00  2.5087E-02  4.7373E-02  0.0000E+00  8.2095E-02  0.0000E+00  0.0000E+00
 31  1.7645E-02  8.2446E-02  4.5410E-02  1.2594E-01  3.4631E-01  1.4842E-01  0.0000E+00  2.3876E-01  3.8788E-01
 32  9.5007E-01  9.2458E-02  0.0000E+00  0.0000E+00  3.9773E-01  4.9557E-01  2.3605E-01  1.8496E-01  4.6147E-01
 33  0.0000E+00  2.2072E-01  5.4942E-02  5.1317E-02  0.0000E+00  4.1300E-01  1.8596E+00  3.2478E-01  3.4412E-01
 34  0.0000E+00  2.3697E-01  6.0581E-01  9.9777E-01  5.2745E-01  6.0821E-01  2.1584E-01  0.0000E+00  6.9080E-01
 35  1.0464E-04  5.2256E-04  3.1617E-03  2.8085E-04  1.2524E-03  0.0000E+00  1.6698E-03  9.3404E-04  2.6607E-03
 36  0.0000E+00  2.2489E-04  7.5292E-05  1.1762E-03  0.0000E+00  3.7095E-04  2.2932E-04  1.7437E-03  9.4382E-04
 37  2.9780E-02  1.6543E-04  6.4094E-04  3.0470E-04  9.9564E-04  2.7458E-04  5.6589E-04  9.7434E-04  6.3293E-04
 38  0.0000E+00  4.7514E-04  1.5666E-03  1.4519E-03  6.9949E-04  2.5117E-03  1.8682E-03  0.0000E+00  1.5503E-03
 39  2.7866E-02  6.4657E-04  4.1310E-03  6.0150E-04  7.2772E-04  0.0000E+00  2.3602E-03  2.4236E-03  6.2329E-04
 40  6.7186E-02  1.4443E-03  2.5801E-03  9.2130E-03  6.8498E-03  0.0000E+00  9.1311E-04  3.3364E-03  8.4527E-03
 41  1.1364E+00  1.9129E-03  2.6987E-03  2.7846E-02  5.7199E-03  7.6097E-04  2.5756E-03  3.7068E-03  0.0000E+00
 42  4.3723E-03  4.2096E-03  6.0728E-03  0.0000E+00  1.5766E-03  8.1386E-03  2.3867E-02  1.3198E-02  1.5795E-03
 43  1.4447E-03  5.7526E-03  0.0000E+00  8.8342E-03  3.8658E-02  1.4797E-02  4.7914E-02  3.7991E-02  0.0000E+00
 44  1.9315E-02  7.9017E-03  3.5884E-03  2.5423E-02  5.8874E-02  2.0297E-02  0.0000E+00  5.3217E-02  1.6410E-02
 45  1.2670E+00  1.4333E-02  8.9897E-02  4.7702E-02  6.0869E-03  0.0000E+00  2.9763E-02  3.9104E-02  5.8728E-02
 46  0.0000E+00  3.4908E-02  1.3129E-01  5.9363E-02  0.0000E+00  1.3344E-01  0.0000E+00  1.3544E-01  1.6181E-01
 47  0.0000E+00  6.3910E-02  6.1714E-01  3.6597E-01  1.5866E-01  2.2334E-01  1.7580E-01  0.0000E+00  1.2431E-01
 48  0.0000E+00  1.1450E-01  6.8524E-01  1.4134E-01  0.0000E+00  2.7408E-01  1.3608E-01  4.0872E-02  0.0000E+00
 49  2.7621E-01  7.0772E+01  6.2218E+01  7.0101E+01  6.5850E+01  6.4778E+01  6.4117E+01  6.7021E+01  6.7424E+01
 50  3.0868E-02  2.4433E+01  2.3904E+01  2.4374E+01  2.7335E+01  2.8038E+01  2.7827E+01  2.6013E+01  2.7747E+01
 51  0.0000E+00  2.5432E-04  1.0082E-03  0.0000E+00  1.1408E-03  0.0000E+00  0.0000E+00  1.4131E-03  9.5475E-04
 52  1.1170E-04  1.6090E-04  0.0000E+00  1.2641E-03  0.0000E+00  4.7635E-05  2.1839E-04  3.3624E-04  7.3059E-04
 53  0.0000E+00  1.8949E-04  4.4762E-04  7.8594E-04  0.0000E+00  8.7945E-04  2.0053E-04  2.6782E-05  8.8077E-04
 54  2.6326E-02  4.5004E-04  1.7918E-03  1.7772E-03  1.6891E-03  1.4174E-03  8.4691E-04  1.3672E-03  4.3720E-05
 55  9.9425E-04  5.3047E-04  1.8889E-03  2.9579E-03  2.1178E-03  0.0000E+00  2.2563E-03  1.1391E-03  1.3709E-03
 56  1.5646E-01  1.6150E-03  3.4740E-06  1.1281E-03  4.7277E-04  3.3969E-04  4.4248E-03  1.2538E-02  3.7438E-04
 57  0.0000E+00  1.2390E-03  0.0000E+00  1.8633E-03  7.9183E-03  2.6090E-03  1.0639E-02  2.6235E-03  1.7008E-03
 58  0.0000E+00  3.3499E-03  3.3089E-03  1.1346E-02  8.4265E-03  9.1892E-03  4.0194E-03  2.5597E-02  3.2954E-03
 59  1.4697E-03  6.8779E-03  0.0000E+00  1.4870E-02  0.0000E+00  3.0722E-02  0.0000E+00  9.7295E-03  7.2397E-03
 60  3.7444E-02  1.2748E-02  5.8082E-02  1.5123E-03  0.0000E+00  4.3468E-02  3.4102E-02  2.2507E-02  1.1700E-02
 61  0.0000E+00  1.2530E+00  1.3252E+00  1.2390E+00  1.3765E+00  1.4005E+00  1.1828E+00  9.0420E-01  1.4962E+00
 62  3.3984E+00  4.6566E-02  2.0959E-01  1.3630E-01  7.3222E-03  7.6426E-02  0.0000E+00  9.3733E-02  2.7118E-01
 63  5.8147E-02  2.9368E-01  4.5851E-01  1.5736E-01  3.4557E-01  3.0113E-01  3.6271E-01  4.2686E-01  3.5051E-02
 64  9.2055E+01  2.3152E-01  8.1102E-01  2.4129E-01  1.6057E-01  1.1458E+00  0.0000E+00  9.5144E-01  2.5578E-01
 65  0.0000E+00  5.0788E-01  4.2259E+00  0.0000E+00  8.6074E-01  0.0000E+00  5.0483E-01  7.2048E-01  0.0000E+00
 66  0.0000E+00  9.0126E-01  2.4590E+00  0.0000E+00  1.3893E+00  0.0000E+00  2.3567E+00  4.6761E-01  0.0000E+00

# AV, chi2 & Mass for <> & i_chain = 1 ...  7 solutions
AV      -1.0000     -0.9921     -1.0000     -1.0000     -1.0000     -1.0000     -1.0000     -1.0000     -1.0000
chi2 3.9708E-05  6.2095E-05  5.8180E-05  5.7727E-05  5.8537E-05  5.9123E-05  5.8534E-05  5.7114E-05  5.8663E-05
Mass 2.4827E-14  8.3477E-14  6.9406E-14  6.8035E-14  7.3186E-14  7.3596E-14  7.3274E-14  6.6969E-14  7.1379E-14
-192.23                                  [v0_min (km/s) before EX0s...]
  53.07                                  [vd_min (km/s) before EX0s...]


## Synthetic spectrum (Best Model) ##l_obs f_obs f_syn wei
 3478    [Nl_obs]
 3741.00    0.11357   1.03776    0.000
 3742.00    0.47044   1.00286    0.000
 3743.00    0.82083   0.95953    0.000
 3744.00    0.63111   0.90810    0.000
 3745.00    0.12669   0.84441   -1.000
 3746.00   -0.09431   0.77100    0.000
 3747.00   -0.17139   0.72194    0.000
 3748.00   -0.23275   0.73406    0.000
 3749.00   -0.28718   0.80106    0.000
 3750.00   -0.41296   0.88632    0.000
 3751.00   -0.56567   0.96681    0.000
 3752.00   -0.70435   1.03428    0.000
 3753.00   -0.83853   1.07544    0.000
 3754.00   -0.55672   1.08058    0.000
 3755.00   -0.16342   1.06275    0.000
 3756.00    0.17909   1.05162   -1.000
 3757.00    0.51045   1.06258   -1.000
 3758.00    0.40961   1.08315   -1.000
 3759.00    0.23332   1.09408   -1.000
 3760.00   -0.04645   1.08869    0.000
 3761.00   -0.33998   1.07267    0.000
 3762.00   -0.31796   1.05247    0.000
 3763.00   -0.26629   1.01998    0.000
 3764.00   -0.05343   0.96802    0.000
 3765.00    0.16872   0.90979   -1.000
 3766.00    0.11063   0.85406   -1.000
 3767.00    0.04628   0.79961   -1.000
 3768.00    0.02859   0.76973   -1.000
 3769.00    0.01179   0.79564   -1.000
 3770.00    0.01673   0.86477   -1.000
 3771.00    0.01834   0.93707   -1.000
 3772.00   -0.02375   0.99397    0.000
 3773.00   -0.01932   1.04052    0.000
 3774.00    0.39343   1.08173   -1.000
 3775.00    0.75918   1.11598   -1.000
 3776.00    0.82015   1.14578   -1.000
 3777.00    0.82317   1.17551   -1.000
 3778.00    0.53295   1.19880   -1.000
 3779.00    0.20891   1.20972   -1.000
 3780.00   -0.25355   1.21431    0.000
 3781.00   -0.57102   1.21658    0.000
 3782.00   -0.39674   1.20722    0.000
 3783.00   -0.34400   1.17992    0.000
 3784.00   -0.63887   1.14777    0.000
 3785.00   -0.71862   1.12417    0.000
 3786.00   -0.27279   1.10631    0.000
 3787.00    0.15188   1.08988   -1.000
 3788.00    0.53192   1.07561   -1.000
 3789.00    0.79706   1.05612   -1.000
 3790.00    0.85174   1.01824   -1.000
 3791.00    0.86219   0.96022   -1.000
 3792.00    0.80182   0.89211   -1.000
 3793.00    0.63003   0.82121   -1.000
 3794.00    0.30171   0.74890   -1.000
 3795.00    0.06444   0.69321   -1.000
 3796.00   -0.06032   0.69115    0.000
 3797.00   -0.02761   0.75236    0.000
 3798.00    0.17666   0.84282   -1.000
 3799.00    0.39306   0.92787   -1.000
 3800.00    0.62111   0.99852   -1.000
 3801.00    0.52222   1.05302   -1.000
 3802.00    0.14628   1.08444   -1.000
 3803.00    0.00477   1.09372   -1.000
 3804.00    0.03819   1.09840   -1.000
 3805.00    0.05129   1.11765   -1.000
 3806.00    0.05106   1.15018   -1.000
 3807.00    0.24420   1.18056   -1.000
 3808.00    0.54831   1.19742   -1.000
 3809.00    0.53003   1.19539   -1.000
 3810.00    0.35061   1.17577   -1.000
 3811.00    0.17810   1.15002   -1.000
 3812.00    0.00858   1.13016   -1.000
 3813.00    0.25489   1.12034   -1.000
 3814.00    0.65541   1.11727   -1.000
 3815.00    0.49700   1.10116   -1.000
 3816.00    0.16288   1.05328   -1.000
 3817.00   -0.18713   1.00292    0.000
 3818.00   -0.54132   1.00289    0.000
 3819.00   -0.41698   1.04925    0.000
 3820.00   -0.19013   1.08887    0.000
 3821.00    0.06409   1.09070   -1.000
 3822.00    0.32295   1.06701   -1.000
 3823.00    0.27484   1.04254   -1.000
 3824.00    0.18735   1.02529   -1.000
 3825.00    0.04432   1.00904   -1.000
 3826.00   -0.10370   0.98844    0.000
 3827.00   -0.17037   0.96090    0.000
 3828.00   -0.23267   0.91993    0.000
 3829.00   -0.18688   0.85868    0.000
 3830.00   -0.13849   0.78257    0.000
 3831.00   -0.05431   0.70667    0.000
 3832.00    0.02505   0.65017   -1.000
 3833.00   -0.00291   0.63671    0.000
 3834.00   -0.00444   0.67083    0.000
 3835.00    0.32278   0.72905   -1.000
 3836.00    0.60194   0.79061   -1.000
 3837.00    0.47493   0.84996   -1.000
 3838.00    0.32755   0.90798   -1.000
 3839.00    0.05197   0.96690   -1.000
 3840.00   -0.17615   1.02038    0.000
 3841.00   -0.17001   1.05844    0.000
 3842.00   -0.05578   1.08141    0.000
 3843.00    0.49119   1.09690   -1.000
 3844.00    0.95985   1.11138   -1.000
 3845.00    1.16816   1.12289   -1.000
 3846.00    1.19975   1.12355   -1.000
 3847.00    0.73511   1.11744    0.000
 3848.00    0.51326   1.12128    0.000
 3849.00    0.87459   1.13641    0.000
 3850.00    1.05642   1.14435    0.000
 3851.00    0.86599   1.13808    0.000
 3852.00    0.65618   1.12554    0.000
 3853.00    0.41142   1.11395    0.000
 3854.00    0.28083   1.11227    0.000
 3855.00    0.33028   1.11706    0.000
 3856.00    0.23829   1.11262    0.000
 3857.00   -0.04952   1.10361    0.000
 3858.00   -0.11556   1.10757    0.000
 3859.00    0.08860   1.12395    0.000
 3860.00    0.31575   1.13986    0.000
 3861.00    0.56760   1.14861    0.000
 3862.00    0.66172   1.14829    0.000
 3863.00    0.60638   1.13873    0.000
 3864.00    0.53392   1.12392    0.000
 3865.00    0.44714   1.11469    0.000
 3866.00    0.40512   1.11624    0.000
 3867.00    0.39600   1.11326    0.000
 3868.00    0.31525   1.09270    0.000
 3869.00    0.18823   1.06864    0.000
 3870.00    0.27380   1.06664    0.000
 3871.00    0.47951   1.08929    0.000
 3872.00    0.46716   1.11177    0.000
 3873.00    0.34755   1.11213    0.000
 3874.00    0.20364   1.09024    0.000
 3875.00    0.04940   1.06025    0.000
 3876.00    0.25297   1.03983    0.000
 3877.00    0.58687   1.03301    0.000
 3878.00    0.63053   1.02093    0.000
 3879.00    0.58472   0.99313    0.000
 3880.00    0.53547   0.96485    0.000
 3881.00    0.48533   0.94197   -1.000
 3882.00    0.41414   0.90223   -1.000
 3883.00    0.33856   0.83337   -1.000
 3884.00    0.15606   0.75429   -1.000
 3885.00   -0.04407   0.68444    0.000
 3886.00    0.23337   0.64069   -1.000
 3887.00    0.56996   0.65066   -1.000
 3888.00    0.43284   0.71769   -1.000
 3889.00    0.25518   0.80574   -1.000
 3890.00    0.50534   0.88003   -1.000
 3891.00    0.77683   0.93104   -1.000
 3892.00    0.69289   0.96551   -1.000
 3893.00    0.60221   0.99618   -1.000
 3894.00    0.45274   1.02906   -1.000
 3895.00    0.31354   1.05380   -1.000
 3896.00    0.38440   1.06356   -1.000
 3897.00    0.44073   1.07132   -1.000
 3898.00    0.32526   1.08954   -1.000
 3899.00    0.22564   1.10874   -1.000
 3900.00    0.25518   1.11492   -1.000
 3901.00    0.26470   1.11286   -1.000
 3902.00    0.15202   1.10827   -1.000
 3903.00    0.05224   1.10402   -1.000
 3904.00    0.01455   1.11369   -1.000
 3905.00    0.01705   1.13938   -1.000
 3906.00    0.17697   1.16426   -1.000
 3907.00    0.34396   1.17728   -1.000
 3908.00    0.53398   1.18175   -1.000
 3909.00    0.70244   1.18324   -1.000
 3910.00    0.81144   1.18165   -1.000
 3911.00    0.80907   1.17796   -1.000
 3912.00    0.54370   1.17571   -1.000
 3913.00    0.36461   1.17155   -1.000
 3914.00    0.36160   1.16135   -1.000
 3915.00    0.28136   1.14485   -1.000
 3916.00    0.06395   1.12071   -1.000
 3917.00    0.06103   1.09441   -1.000
 3918.00    0.39136   1.08022   -1.000
 3919.00    0.65905   1.08518   -1.000
 3920.00    0.84124   1.09813   -1.000
 3921.00    0.82524   1.10475   -1.000
 3922.00    0.57118   1.09766   -1.000
 3923.00    0.27978   1.07514   -1.000
 3924.00   -0.05118   1.04999    0.000
 3925.00   -0.02253   1.03535    0.000
 3926.00    0.34207   1.02609   -1.000
 3927.00    0.36231   1.01346   -1.000
 3928.00    0.09894   0.99545   -1.000
 3929.00   -0.06496   0.97068    0.000
 3930.00   -0.15677   0.94133    0.000
 3931.00   -0.00205   0.92284    0.000
 3932.00    0.30956   0.93022   -1.000
 3933.00    0.34185   0.95717   -1.000
 3934.00    0.21867   0.98900   -1.000
 3935.00    0.25970   1.01850   -1.000
 3936.00    0.38022   1.04382   -1.000
 3937.00    0.27666   1.06379   -1.000
 3938.00    0.07940   1.07549   -1.000
 3939.00    0.12920   1.07776   -1.000
 3940.00    0.26736   1.07252   -1.000
 3941.00    0.40857   1.06636    0.096
 3942.00    0.55068   1.07280    0.042
 3943.00    1.23300   1.09351    0.038
 3944.00    2.05099   1.10882    0.040
 3945.00    2.06386   1.10887    0.040
 3946.00    1.91255   1.10835    0.041
 3947.00    1.69989   1.11740    0.041
 3948.00    1.47741   1.12521    0.040
 3949.00    1.45878   1.11984    0.040
 3950.00    1.46449   1.10949    0.041
 3951.00    1.81188   1.10789    0.042
 3952.00    2.18710   1.10724    0.042
 3953.00    1.72637   1.09355    0.042
 3954.00    1.22721   1.07525    0.041
 3955.00    0.72642   1.06730    0.040
 3956.00    0.23321   1.06333    0.039
 3957.00    0.13677   1.04275    0.038
 3958.00    0.07427   0.99786    0.038
 3959.00    0.65468   0.94571    0.038
 3960.00    1.18931   0.90336    0.000
 3961.00    1.20799   0.86381    0.000
 3962.00    1.11065   0.81592    0.000
 3963.00    0.10134   0.76058    0.000
 3964.00   -0.65589   0.69781    0.000
 3965.00    0.08266   0.62721    0.000
 3966.00    0.76979   0.56046    0.000
 3967.00    1.21544   0.52291    0.000
 3968.00    1.48468   0.53780    0.000
 3969.00    1.07785   0.59980    0.000
 3970.00    0.83047   0.67935    0.000
 3971.00    1.09274   0.75599    0.000
 3972.00    1.33405   0.82553    0.000
 3973.00    1.51861   0.88511    0.000
 3974.00    1.52360   0.93380    0.000
 3975.00    1.11164   0.97670    0.000
 3976.00    0.75103   1.01627    0.000
 3977.00    0.49355   1.04841    0.000
 3978.00    0.33915   1.06652    0.000
 3979.00    0.36504   1.07079    0.000
 3980.00    0.58199   1.07237    0.000
 3981.00    1.09142   1.08093    0.037
 3982.00    1.64496   1.09560    0.037
 3983.00    2.25781   1.10972    0.038
 3984.00    1.93827   1.12166    0.038
 3985.00    0.51458   1.13462    0.038
 3986.00   -0.21556   1.14242    0.000
 3987.00   -0.22151   1.14059    0.000
 3988.00   -0.38042   1.14059    0.000
 3989.00   -0.68022   1.14913    0.000
 3990.00   -0.38433   1.15752    0.000
 3991.00    0.39518   1.15613    0.037
 3992.00    0.73719   1.14622    0.037
 3993.00    0.76660   1.13504    0.037
 3994.00    0.82861   1.12595    0.037
 3995.00    0.91106   1.12465    0.037
 3996.00    1.00384   1.13960    0.037
 3997.00    1.10229   1.16289    0.038
 3998.00    0.89353   1.17572    0.037
 3999.00    0.53845   1.17631    0.036
 4000.00    0.95349   1.17275    0.036
 4001.00    1.68507   1.15849    0.037
 4002.00    1.12454   1.12834    0.037
 4003.00    0.11021   1.10378    0.036
 4004.00   -0.11478   1.10412    0.000
 4005.00   -0.10589   1.11446    0.000
 4006.00    0.30122   1.11662    0.036
 4007.00    0.80616   1.11902    0.035
 4008.00    0.80835   1.13257    0.035
 4009.00    0.71058   1.14982    0.034
 4010.00    0.88504   1.16181    0.034
 4011.00    1.10181   1.16952    0.034
 4012.00    1.63922   1.17612    0.035
 4013.00    2.21350   1.17902    0.035
 4014.00    1.79530   1.17408    0.034
 4015.00    1.30037   1.16976    0.034
 4016.00    0.83683   1.17579    0.034
 4017.00    0.37461   1.18198    0.034
 4018.00    1.05091   1.17551    0.034
 4019.00    1.71715   1.16039    0.035
 4020.00    1.48684   1.14050    0.034
 4021.00    1.22715   1.10866    0.033
 4022.00    0.44934   1.06656    0.033
 4023.00   -0.20758   1.03897    0.000
 4024.00    0.43622   1.05140    0.034
 4025.00    1.04403   1.09336    0.034
 4026.00    1.37865   1.12409    0.034
 4027.00    1.52668   1.11979    0.034
 4028.00    0.59853   1.09592    0.034
 4029.00   -0.15438   1.07882    0.000
 4030.00   -0.10418   1.07486    0.000
 4031.00    0.02029   1.08087    0.035
 4032.00    0.42336   1.09881    0.035
 4033.00    0.76015   1.12945    0.034
 4034.00    0.88915   1.16422    0.034
 4035.00    1.00000   1.18667    0.033
 4036.00    1.06253   1.18772    0.034
 4037.00    1.01146   1.17398    0.035
 4038.00    0.70101   1.16089    0.034
 4039.00    0.60168   1.15790    0.034
 4040.00    0.91970   1.15170    0.035
 4041.00    1.03234   1.12070    0.035
 4042.00    0.79118   1.07287    0.036
 4043.00    0.56957   1.04668    0.036
 4044.00    0.37747   1.06614    0.035
 4045.00    0.12198   1.10942    0.034
 4046.00   -0.21756   1.14210    0.000
 4047.00    0.38658   1.15802    0.035
 4048.00    2.09247   1.16318    0.036
 4049.00    2.45217   1.15698    0.036
 4050.00    1.42591   1.14216    0.035
 4051.00    0.90445   1.12599    0.035
 4052.00    0.84141   1.11380    0.035
 4053.00    0.93150   1.10721    0.035
 4054.00    1.14415   1.10077    0.035
 4055.00    1.19297   1.09380    0.034
 4056.00    1.12643   1.09770    0.034
 4057.00    1.61221   1.11326    0.034
 4058.00    2.43915   1.12100    0.035
 4059.00    2.29627   1.10272    0.035
 4060.00    1.63008   1.06643    0.035
 4061.00    1.26126   1.04540    0.034
 4062.00    1.03180   1.05800    0.034
 4063.00    1.22852   1.08050    0.033
 4064.00    1.59742   1.08928    0.033
 4065.00    1.66139   1.09605    0.033
 4066.00    1.62023   1.10909    0.033
 4067.00    1.67724   1.10782    0.033
 4068.00    1.76276   1.08197    0.033
 4069.00    1.22882   1.05967    0.033
 4070.00    0.54608   1.06844    0.032
 4071.00    0.43530   1.08916    0.032
 4072.00    0.43534   1.08595    0.032
 4073.00    0.92416   1.05706    0.032
 4074.00    1.48663   1.02833    0.033
 4075.00    1.85787   1.02261    0.033
 4076.00    2.20794   1.04361    0.033
 4077.00    2.10999   1.07797    0.033
 4078.00    1.97924   1.10690    0.033
 4079.00    1.19145   1.11483    0.032
 4080.00    0.37851   1.10066    0.031
 4081.00    0.89442   1.07983    0.032
 4082.00    1.40319   1.06739    0.032
 4083.00    1.36479   1.06865    0.033
 4084.00    1.32632   1.08147    0.033
 4085.00    1.28659   1.09537    0.032
 4086.00    1.23283   1.09794    0.032
 4087.00    1.03475   1.08732    0.032
 4088.00    0.82895   1.06960    0.032
 4089.00    0.56655   1.04955    0.032
 4090.00    0.47420   1.03182    0.032
 4091.00    1.33578   1.01358    0.033
 4092.00    1.86162   0.98081    0.000
 4093.00    0.88505   0.93319    0.000
 4094.00    0.20172   0.88704    0.000
 4095.00    0.59538   0.84702    0.000
 4096.00    0.98618   0.80045    0.000
 4097.00    1.36824   0.73480    0.000
 4098.00    1.55575   0.66141    0.000
 4099.00    1.23482   0.62302    0.000
 4100.00    1.06882   0.64948    0.000
 4101.00    1.25077   0.71915    0.000
 4102.00    1.13188   0.79477    0.000
 4103.00    0.42757   0.85965    0.000
 4104.00    0.20040   0.90744    0.000
 4105.00    0.78281   0.93664    0.000
 4106.00    1.18492   0.95254    0.000
 4107.00    1.31900   0.96211    0.000
 4108.00    1.41780   0.97238    0.000
 4109.00    1.47052   0.98859    0.000
 4110.00    1.38590   1.01077    0.000
 4111.00    1.14320   1.03251    0.000
 4112.00    1.12837   1.04774    0.000
 4113.00    1.34484   1.05712    0.031
 4114.00    1.44869   1.05917    0.031
 4115.00    1.45169   1.04767    0.031
 4116.00    1.36850   1.02797    0.043
 4117.00    1.21731   1.01508    0.147
 4118.00    1.31580   1.01460   -1.000
 4119.00    1.58755   1.02336   -1.000
 4120.00    2.11046   1.03772   -1.000
 4121.00    2.78620   1.05500   -1.000
 4122.00    2.26505   1.06917   -1.000
 4123.00    1.10805   1.06896   -1.000
 4124.00    0.70636   1.05113    0.086
 4125.00    0.65293   1.02967    0.035
 4126.00    0.90147   1.01983    0.030
 4127.00    1.26990   1.01545    0.030
 4128.00    0.90529   1.00451    0.030
 4129.00    0.29258   0.99327    0.029
 4130.00    0.51899   0.99416    0.029
 4131.00    0.98415   1.00880    0.029
 4132.00    1.26242   1.03295    0.029
 4133.00    1.49682   1.05745    0.029
 4134.00    1.40468   1.07021    0.030
 4135.00    1.25092   1.07386    0.030
 4136.00    1.27151   1.07760    0.030
 4137.00    1.31755   1.07778    0.030
 4138.00    0.76703   1.06180    0.030
 4139.00    0.15311   1.01857    0.030
 4140.00    0.17835   0.95960    0.030
 4141.00    0.24780   0.92856    0.029
 4142.00    0.16389   0.95209    0.029
 4143.00    0.07469   1.00052    0.029
 4144.00    0.62106   1.03393    0.029
 4145.00    1.15567   1.04433    0.030
 4146.00    1.26011   1.03961    0.031
 4147.00    1.33095   1.03039    0.032
 4148.00    0.88232   1.02647    0.031
 4149.00    0.49898   1.02553    0.030
 4150.00    0.75914   1.02108    0.031
 4151.00    1.01850   1.01470    0.031
 4152.00    1.27222   1.01151    0.031
 4153.00    1.40170   1.01188    0.030
 4154.00    0.85300   1.01599    0.031
 4155.00    0.38355   1.02760    0.031
 4156.00    0.26048   1.04262    0.030
 4157.00    0.22282   1.05128    0.030
 4158.00    0.49230   1.05309    0.030
 4159.00    0.79651   1.05597    0.031
 4160.00    1.20548   1.06021    0.031
 4161.00    1.40055   1.05852    0.031
 4162.00    1.04634   1.05095    0.030
 4163.00    0.83441   1.04073    0.030
 4164.00    0.93675   1.02803    0.029
 4165.00    1.07767   1.01965    0.029
 4166.00    1.29249   1.02347    0.030
 4167.00    1.40077   1.03023    0.030
 4168.00    1.33097   1.02133    0.030
 4169.00    1.30927   0.99476    0.030
 4170.00    1.35803   0.97172    0.030
 4171.00    1.18051   0.97034    0.029
 4172.00    0.71154   0.98409    0.029
 4173.00    0.68471   0.99480    0.029
 4174.00    1.15962   0.99464    0.030
 4175.00    1.34664   0.99114    0.030
 4176.00    1.24551   0.99567    0.030
 4177.00    0.75080   1.00618    0.029
 4178.00   -0.09134   1.00971    0.000
 4179.00   -0.11652   1.00484    0.000
 4180.00    0.49368   1.00421    0.029
 4181.00    0.70399   1.01363    0.028
 4182.00    0.64081   1.02425    0.028
 4183.00    0.63858   1.02046    0.028
 4184.00    0.67287   1.00117    0.028
 4185.00    1.10197   0.98935    0.028
 4186.00    1.73757   0.99757    0.028
 4187.00    1.87098   1.01015    0.028
 4188.00    1.77659   1.01482    0.028
 4189.00    1.52669   1.02088    0.027
 4190.00    1.21610   1.03350    0.027
 4191.00    1.04880   1.03666    0.027
 4192.00    0.92909   1.01904    0.027
 4193.00    0.91047   0.99277    0.027
 4194.00    0.92001   0.97226    0.027
 4195.00    1.09920   0.95846    0.027
 4196.00    1.31729   0.95243    0.028
 4197.00    1.21661   0.95552    0.028
 4198.00    1.05733   0.95883    0.027
 4199.00    0.52881   0.95978    0.027
 4200.00   -0.05194   0.96804    0.000
 4201.00    0.16526   0.98318    0.027
 4202.00    0.46382   0.99721    0.027
 4203.00    0.98660   1.00993    0.027
 4204.00    1.52399   1.02199    0.027
 4205.00    1.29384   1.02906    0.026
 4206.00    1.04024   1.02659    0.026
 4207.00    0.86574   1.01881    0.027
 4208.00    0.69920   1.01765    0.027
 4209.00    0.76636   1.02378    0.027
 4210.00    0.83813   1.02323    0.027
 4211.00    0.97688   1.00615    0.027
 4212.00    1.06426   0.98012    0.027
 4213.00    0.66583   0.96928    0.027
 4214.00    0.40315   0.98794    0.027
 4215.00    1.07360   1.01841    0.028
 4216.00    1.57682   1.03762    0.028
 4217.00    1.19124   1.04377    0.027
 4218.00    0.94222   1.04178    0.027
 4219.00    1.27650   1.02801    0.027
 4220.00    1.44493   1.00138    0.027
 4221.00    1.02907   0.96626    0.027
 4222.00    0.68943   0.92405    0.027
 4223.00    0.57551   0.88222    0.027
 4224.00    0.63060   0.86593    0.027
 4225.00    1.11221   0.89450    0.027
 4226.00    1.35441   0.94838    0.027
 4227.00    1.07639   0.99233    0.027
 4228.00    0.97598   1.01206    0.026
 4229.00    1.21050   1.00629    0.026
 4230.00    1.12565   0.98522    0.026
 4231.00    0.51500   0.97106    0.026
 4232.00    0.11506   0.96742    0.025
 4233.00    0.01927   0.96328    0.025
 4234.00    0.03215   0.96253    0.025
 4235.00    0.18300   0.96836    0.024
 4236.00    0.44727   0.97421    0.025
 4237.00    0.83843   0.98165    0.025
 4238.00    1.12995   0.99390    0.026
 4239.00    1.32313   1.00460    0.025
 4240.00    1.15704   1.01349    0.025
 4241.00    0.67828   1.02686    0.025
 4242.00    0.76526   1.03497    0.025
 4243.00    1.28598   1.02337    0.026
 4244.00    1.39707   0.99877    0.026
 4245.00    1.23211   0.97782    0.026
 4246.00    0.98368   0.96289    0.026
 4247.00    0.68597   0.94942    0.026
 4248.00    0.48347   0.94665    0.026
 4249.00    0.33000   0.95817    0.026
 4250.00    0.25121   0.96335    0.026
 4251.00    0.20574   0.95233    0.026
 4252.00    0.32804   0.94670    0.026
 4253.00    0.51467   0.96321    0.026
 4254.00    1.02437   0.98506    0.026
 4255.00    1.63936   0.98466    0.026
 4256.00    1.94352   0.96001    0.026
 4257.00    2.16284   0.93300    0.026
 4258.00    1.76932   0.92741    0.026
 4259.00    1.23846   0.95151    0.025
 4260.00    0.99128   0.98811    0.025
 4261.00    0.79482   1.01314    0.026
 4262.00    0.98008   1.01900    0.026
 4263.00    1.21757   1.00702    0.026
 4264.00    1.01949   0.98262    0.026
 4265.00    0.77886   0.96204    0.026
 4266.00    0.91426   0.95063    0.026
 4267.00    1.07266   0.93197    0.026
 4268.00    0.96380   0.90121    0.026
 4269.00    0.84879   0.88043    0.025
 4270.00    0.94258   0.88344    0.025
 4271.00    1.03268   0.89476    0.025
 4272.00    1.02559   0.90597    0.025
 4273.00    0.99569   0.92857    0.024
 4274.00    0.65219   0.96073    0.024
 4275.00    0.31933   0.98403    0.024
 4276.00    0.08311   0.98576    0.024
 4277.00   -0.10733   0.97050    0.000
 4278.00    0.00722   0.95589    0.025
 4279.00    0.19775   0.95148    0.025
 4280.00    0.78158   0.95335    0.025
 4281.00    1.29874   0.95431    0.025
 4282.00    1.53761   0.94877   -2.000
 4283.00    1.85696   0.94119   -2.000
 4284.00    2.45416   0.93683   -2.000
 4285.00    2.86444   0.92579   -2.000
 4286.00    2.73141   0.90035   -2.000
 4287.00    2.34595   0.87802   -2.000
 4288.00    1.33436   0.88250   -2.000
 4289.00    0.65024   0.90987   -2.000
 4290.00    0.66620   0.93245   -2.000
 4291.00    0.75460   0.93370   -2.000
 4292.00    0.97751   0.92612   -2.000
 4293.00    1.10145   0.92206   -2.000
 4294.00    1.06492   0.91340   -2.000
 4295.00    0.93275   0.89059   -2.000
 4296.00    0.66453   0.85791   -2.000
 4297.00    0.67491   0.83423   -2.000
 4298.00    1.03396   0.83171    0.026
 4299.00    1.06674   0.83856    0.026
 4300.00    0.73962   0.84386    0.025
 4301.00    0.87052   0.85020    0.025
 4302.00    1.44706   0.85396    0.026
 4303.00    1.49410   0.84725    0.026
 4304.00    1.08684   0.83036    0.027
 4305.00    1.08204   0.81312    0.026
 4306.00    1.38137   0.81071    0.026
 4307.00    1.32656   0.82771    0.026
 4308.00    1.03656   0.85316    0.026
 4309.00    0.82624   0.87471    0.026
 4310.00    0.66225   0.88847    0.026
 4311.00    0.66281   0.90036    0.026
 4312.00    0.74676   0.92419    0.026
 4313.00    0.74358   0.96281    0.025
 4314.00    0.70215   0.99474    0.025
 4315.00    0.87177   1.00221    0.025
 4316.00    1.12089   0.99190    0.025
 4317.00    1.09287   0.97656    0.025
 4318.00    0.97625   0.96209    0.024
 4319.00    0.98361   0.94681    0.025
 4320.00    1.02411   0.91920    0.025
 4321.00    1.13420   0.87394    0.025
 4322.00    1.25953   0.82863    0.026
 4323.00    1.09194   0.81415    0.025
 4324.00    0.87340   0.84477    0.024
 4325.00    0.78617   0.89571    0.024
 4326.00    0.71631   0.92662    0.025
 4327.00    0.54255   0.92447    0.024
 4328.00    0.35909   0.90863    0.024
 4329.00    0.92964   0.89805    0.024
 4330.00    1.54331   0.89210    0.000
 4331.00    1.23358   0.88481    0.000
 4332.00    0.90595   0.86951    0.000
 4333.00    0.99056   0.83064    0.000
 4334.00    1.07904   0.76126    0.000
 4335.00    1.26081   0.68080    0.000
 4336.00    1.42638   0.61080    0.000
 4337.00    1.38118   0.56494    0.000
 4338.00    1.29211   0.56645    0.000
 4339.00    0.81981   0.61931    0.000
 4340.00    0.42311   0.68630    0.000
 4341.00    0.51480   0.73870    0.000
 4342.00    0.63998   0.78110    0.000
 4343.00    0.93408   0.81710    0.000
 4344.00    1.19161   0.84459    0.000
 4345.00    1.29992   0.87131    0.000
 4346.00    1.34576   0.89513    0.000
 4347.00    1.18032   0.89369    0.000
 4348.00    1.04057   0.86177    0.000
 4349.00    0.97413   0.83438    0.000
 4350.00    1.03246   0.84288    0.000
 4351.00    1.39497   0.87437    0.023
 4352.00    1.53436   0.90304    0.028
 4353.00    1.20445   0.92462    0.071
 4354.00    0.98825   0.93816   -1.000
 4355.00    0.97992   0.93527   -1.000
 4356.00    1.10579   0.92307   -1.000
 4357.00    1.44606   0.92323   -1.000
 4358.00    1.57801   0.94018   -1.000
 4359.00    1.41785   0.95756   -1.000
 4360.00    1.29236   0.96701    0.099
 4361.00    1.20963   0.97598    0.031
 4362.00    1.19033   0.98380    0.023
 4363.00    1.24001   0.97616    0.023
 4364.00    1.17611   0.95204    0.023
 4365.00    1.00326   0.93116    0.023
 4366.00    0.89968   0.92684    0.022
 4367.00    0.85470   0.93226    0.022
 4368.00    0.88211   0.93718    0.023
 4369.00    0.96344   0.93581    0.023
 4370.00    1.07832   0.92161    0.023
 4371.00    1.21516   0.89645    0.023
 4372.00    1.15027   0.87940    0.023
 4373.00    0.96984   0.88864    0.023
 4374.00    0.93117   0.91819    0.023
 4375.00    0.96322   0.94359    0.023
 4376.00    1.13885   0.94898    0.023
 4377.00    1.37645   0.93807    0.023
 4378.00    1.42129   0.91610    0.023
 4379.00    1.39480   0.87580    0.023
 4380.00    1.11147   0.81984    0.023
 4381.00    0.74760   0.78137    0.023
 4382.00    0.61787   0.78864    0.023
 4383.00    0.54940   0.82325    0.022
 4384.00    0.54193   0.84515    0.022
 4385.00    0.54748   0.84761    0.022
 4386.00    0.56925   0.85109    0.022
 4387.00    0.59377   0.86219    0.022
 4388.00    0.78363   0.87721    0.022
 4389.00    0.99462   0.89446    0.022
 4390.00    1.14004   0.90499    0.022
 4391.00    1.27961   0.90180    0.022
 4392.00    1.16326   0.89796    0.022
 4393.00    1.03327   0.91242    0.022
 4394.00    1.10810   0.93822    0.023
 4395.00    1.18239   0.94868    0.023
 4396.00    0.88712   0.93352    0.023
 4397.00    0.61993   0.90876    0.023
 4398.00    0.97004   0.89887    0.023
 4399.00    1.27830   0.90584    0.024
 4400.00    1.06951   0.89997    0.023
 4401.00    0.86655   0.86775    0.023
 4402.00    0.71267   0.84109    0.023
 4403.00    0.60019   0.84547    0.023
 4404.00    0.74721   0.86225    0.023
 4405.00    0.84468   0.87222    0.023
 4406.00    0.69837   0.88647    0.023
 4407.00    0.67221   0.91273    0.023
 4408.00    1.12571   0.93809    0.023
 4409.00    1.41027   0.95080    0.024
 4410.00    1.13453   0.94339    0.023
 4411.00    0.93662   0.91113    0.023
 4412.00    0.95676   0.87303    0.023
 4413.00    1.02616   0.86032    0.023
 4414.00    1.21359   0.87711    0.023
 4415.00    1.20715   0.90598    0.023
 4416.00    0.79943   0.93263    0.024
 4417.00    0.65987   0.94497    0.024
 4418.00    1.00302   0.93544    0.024
 4419.00    1.13716   0.91327    0.023
 4420.00    0.94228   0.89971    0.023
 4421.00    0.86545   0.90285    0.023
 4422.00    0.95175   0.90990    0.023
 4423.00    1.00250   0.91097    0.023
 4424.00    1.01001   0.91063    0.023
 4425.00    0.96354   0.91331    0.023
 4426.00    0.85920   0.91182    0.023
 4427.00    1.00604   0.90214    0.023
 4428.00    1.39047   0.89717    0.023
 4429.00    1.29791   0.90091    0.023
 4430.00    0.80759   0.89575    0.023
 4431.00    0.89340   0.87461    0.023
 4432.00    1.40219   0.85514    0.023
 4433.00    1.60226   0.85769    0.024
 4434.00    1.60327   0.88366    0.023
 4435.00    1.48765   0.91718    0.023
 4436.00    1.30624   0.93904    0.023
 4437.00    1.03441   0.93607    0.023
 4438.00    0.71820   0.91043    0.023
 4439.00    0.71519   0.88041    0.023
 4440.00    0.84506   0.86680    0.023
 4441.00    0.85748   0.87947    0.023
 4442.00    0.82721   0.90825    0.023
 4443.00    0.70460   0.92899    0.023
 4444.00    0.55360   0.93197    0.023
 4445.00    0.78377   0.92997    0.023
 4446.00    1.11152   0.92870    0.023
 4447.00    1.01244   0.92301    0.023
 4448.00    0.82441   0.91715    0.023
 4449.00    0.81082   0.91347    0.023
 4450.00    0.82590   0.90108    0.023
 4451.00    0.94021   0.87511    0.023
 4452.00    1.06675   0.84997    0.023
 4453.00    1.03865   0.84283    0.022
 4454.00    0.99739   0.84962    0.022
 4455.00    1.03034   0.85381    0.022
 4456.00    1.06695   0.85107    0.021
 4457.00    1.15827   0.84571    0.022
 4458.00    1.24842   0.83973    0.022
 4459.00    1.21084   0.84205    0.022
 4460.00    1.17575   0.86065    0.022
 4461.00    1.19115   0.88157    0.000
 4462.00    1.20380   0.88815    0.000
 4463.00    1.18432   0.88428    0.000
 4464.00    1.17380   0.87812    0.000
 4465.00    1.23605   0.86733    0.000
 4466.00    1.26871   0.84898    0.000
 4467.00    1.12128   0.82900    0.000
 4468.00    1.02385   0.82015    0.000
 4469.00    1.16633   0.83552    0.000
 4470.00    1.28878   0.87132    0.000
 4471.00    1.33299   0.90358    0.000
 4472.00    1.34665   0.91861    0.000
 4473.00    1.26096   0.92738    0.000
 4474.00    1.16569   0.93845    0.000
 4475.00    1.04408   0.93943    0.000
 4476.00    0.95338   0.91503    0.000
 4477.00    0.93551   0.87084    0.000
 4478.00    0.96219   0.83492    0.000
 4479.00    1.07961   0.83399    0.000
 4480.00    1.08894   0.86606    0.000
 4481.00    0.90665   0.90522    0.000
 4482.00    0.80912   0.93156    0.020
 4483.00    0.84303   0.94045    0.021
 4484.00    0.83620   0.93123    0.021
 4485.00    0.77391   0.90692    0.021
 4486.00    0.74687   0.88106    0.021
 4487.00    0.76211   0.87091    0.021
 4488.00    0.82146   0.88097    0.021
 4489.00    0.92746   0.89682    0.021
 4490.00    0.98114   0.89819    0.021
 4491.00    0.98603   0.88176    0.020
 4492.00    0.90109   0.86558    0.020
 4493.00    0.74231   0.86550    0.020
 4494.00    0.68666   0.88075    0.020
 4495.00    0.70563   0.90125    0.020
 4496.00    0.79663   0.91460    0.020
 4497.00    0.93338   0.91317    0.020
 4498.00    0.97972   0.90435    0.020
 4499.00    0.97585   0.90843    0.020
 4500.00    0.91497   0.93145    0.020
 4501.00    0.82656   0.95375    0.020
 4502.00    0.91755   0.95830    0.020
 4503.00    1.08337   0.94767    0.020
 4504.00    1.14871   0.93294    0.020
 4505.00    1.17819   0.92416    0.020
 4506.00    1.08260   0.92588    0.020
 4507.00    0.94930   0.93274    0.020
 4508.00    0.83169   0.93298    0.020
 4509.00    0.71801   0.92129    0.020
 4510.00    0.88170   0.90457    0.019
 4511.00    1.10177   0.89250    0.019
 4512.00    1.06900   0.88985    0.019
 4513.00    0.99589   0.89345    0.019
 4514.00    0.96477   0.89458    0.019
 4515.00    0.93864   0.89327    0.020
 4516.00    0.69450   0.89845    0.020
 4517.00    0.43272   0.90984    0.020
 4518.00    0.66525   0.91545    0.020
 4519.00    0.92026   0.90614    0.020
 4520.00    1.05082   0.88925    0.020
 4521.00    1.17027   0.87637    0.019
 4522.00    0.80077   0.86433    0.019
 4523.00    0.45215   0.84725    0.019
 4524.00    0.49539   0.82832    0.019
 4525.00    0.54503   0.81401    0.020
 4526.00    0.66638   0.81006    0.019
 4527.00    0.79151   0.81787    0.019
 4528.00    0.94634   0.83230    0.019
 4529.00    1.08130   0.84379    0.020
 4530.00    1.09885   0.84125    0.019
 4531.00    1.12578   0.82664    0.019
 4532.00    1.19664   0.82034    0.019
 4533.00    1.22999   0.83972    0.020
 4534.00    1.12003   0.87514    0.019
 4535.00    1.00916   0.89708    0.019
 4536.00    0.89536   0.89148    0.019
 4537.00    0.81705   0.87149    0.019
 4538.00    0.83461   0.85838    0.019
 4539.00    0.81906   0.86209    0.019
 4540.00    0.72683   0.87211    0.019
 4541.00    0.66881   0.87204    0.019
 4542.00    0.67941   0.86421    0.019
 4543.00    0.67091   0.86158    0.019
 4544.00    0.62908   0.86251    0.019
 4545.00    0.53051   0.85522    0.019
 4546.00    0.34524   0.84196    0.019
 4547.00    0.37013   0.83948    0.019
 4548.00    0.67712   0.84877    0.019
 4549.00    0.90813   0.85216    0.019
 4550.00    1.04931   0.84463    0.000
 4551.00    1.02834   0.83556    0.000
 4552.00    0.83835   0.83447    0.000
 4553.00    0.74436   0.84794    0.000
 4554.00    0.73864   0.87119    0.000
 4555.00    0.64767   0.88961    0.000
 4556.00    0.48761   0.89671    0.000
 4557.00    0.51286   0.89765    0.000
 4558.00    0.67025   0.89754    0.000
 4559.00    0.69103   0.89254    0.000
 4560.00    0.62632   0.87596    0.000
 4561.00    0.61208   0.85452    0.000
 4562.00    0.62546   0.84513    0.000
 4563.00    0.56854   0.85553    0.000
 4564.00    0.47820   0.87674    0.000
 4565.00    0.53555   0.89251    0.000
 4566.00    0.65347   0.89426    0.000
 4567.00    0.66502   0.88202    0.000
 4568.00    0.63930   0.86358    0.000
 4569.00    0.73738   0.85797    0.000
 4570.00    0.87205   0.87166    0.000
 4571.00    0.72187   0.88500    0.000
 4572.00    0.50191   0.88598    0.000
 4573.00    0.54855   0.88313    0.000
 4574.00    0.64802   0.88020    0.000
 4575.00    0.77904   0.87017    0.000
 4576.00    0.91494   0.85100    0.000
 4577.00    0.75764   0.83303    0.000
 4578.00    0.56678   0.82801    0.000
 4579.00    0.51385   0.83376    0.000
 4580.00    0.47151   0.83797    0.000
 4581.00    0.67808   0.83637    0.000
 4582.00    0.89500   0.83439    0.000
 4583.00    0.79546   0.83750    0.000
 4584.00    0.69542   0.84895    0.000
 4585.00    0.69183   0.86508    0.000
 4586.00    0.69115   0.87489    0.000
 4587.00    0.74149   0.87059    0.000
 4588.00    0.77732   0.85574    0.000
 4589.00    0.65784   0.84217    0.000
 4590.00    0.57356   0.83679    0.000
 4591.00    0.75519   0.83495    0.000
 4592.00    0.90766   0.83175    0.000
 4593.00    0.89246   0.83039    0.000
 4594.00    0.87176   0.83376    0.000
 4595.00    0.82587   0.83959    0.000
 4596.00    0.76754   0.84231    0.000
 4597.00    0.66259   0.83800    0.000
 4598.00    0.60232   0.83334    0.000
 4599.00    0.68178   0.83547    0.000
 4600.00    0.73822   0.83947    0.000
 4601.00    0.73355   0.83905    0.000
 4602.00    0.76328   0.83647    0.000
 4603.00    0.87143   0.84019    0.000
 4604.00    0.92347   0.85534    0.000
 4605.00    0.86482   0.87643    0.000
 4606.00    0.85172   0.89020    0.000
 4607.00    0.91695   0.88817    0.000
 4608.00    0.93614   0.87571    0.000
 4609.00    0.88598   0.86336    0.000
 4610.00    0.86363   0.85717    0.000
 4611.00    0.87806   0.85968    0.000
 4612.00    0.82737   0.86654    0.000
 4613.00    0.70078   0.87011    0.000
 4614.00    0.75647   0.86957    0.000
 4615.00    0.99952   0.86436    0.000
 4616.00    1.04419   0.85647    0.000
 4617.00    0.90903   0.85603    0.000
 4618.00    0.82037   0.86350    0.000
 4619.00    0.76884   0.86841    0.000
 4620.00    0.75434   0.86888    0.000
 4621.00    0.76586   0.86727    0.000
 4622.00    0.75695   0.86228    0.000
 4623.00    0.73545   0.85751    0.000
 4624.00    0.73972   0.85690    0.000
 4625.00    0.75788   0.85498    0.000
 4626.00    0.84024   0.84943    0.000
 4627.00    0.95264   0.84982    0.000
 4628.00    0.92608   0.85771    0.000
 4629.00    0.84351   0.85887    0.000
 4630.00    0.71419   0.84812    0.000
 4631.00    0.56877   0.83750    0.000
 4632.00    0.65838   0.83414    0.000
 4633.00    0.81606   0.83185    0.000
 4634.00    0.96289   0.82429    0.000
 4635.00    1.10713   0.81424    0.000
 4636.00    1.08732   0.80780    0.000
 4637.00    1.03583   0.80904    0.000
 4638.00    0.78865   0.81861    0.000
 4639.00    0.51209   0.82826    0.000
 4640.00    0.50527   0.82840    0.000
 4641.00    0.52814   0.81904    0.000
 4642.00    0.89135   0.80259    0.000
 4643.00    1.27930   0.78217    0.000
 4644.00    1.19643   0.76845    0.000
 4645.00    1.09575   0.77018    0.000
 4646.00    1.02468   0.78445    0.000
 4647.00    0.95162   0.80267    0.000
 4648.00    0.79937   0.81821    0.000
 4649.00    0.66369   0.82802    0.000
 4650.00    0.79898   0.82848    0.000
 4651.00    0.92399   0.81752    0.000
 4652.00    0.94387   0.80369    0.000
 4653.00    0.94529   0.79966    0.000
 4654.00    0.81185   0.81148    0.000
 4655.00    0.69861   0.83546    0.000
 4656.00    0.69828   0.85777    0.000
 4657.00    0.71350   0.86413    0.000
 4658.00    0.79816   0.85193    0.000
 4659.00    0.88057   0.83079    0.000
 4660.00    0.95479   0.81365    0.000
 4661.00    0.94880   0.80504    0.000
 4662.00    0.69671   0.79467    0.000
 4663.00    0.54160   0.77156    0.000
 4664.00    0.63944   0.74590    0.000
 4665.00    0.70291   0.73992    0.000
 4666.00    0.68935   0.75872    0.000
 4667.00    0.66498   0.78681    0.000
 4668.00    0.61962   0.80697    0.000
 4669.00    0.64475   0.81199    0.000
 4670.00    0.78925   0.80740    0.000
 4671.00    0.89090   0.80503    0.000
 4672.00    0.92899   0.81123    0.000
 4673.00    0.94262   0.82080    0.000
 4674.00    0.92437   0.82197    0.000
 4675.00    0.84151   0.81102    0.000
 4676.00    0.68444   0.79631    0.000
 4677.00    0.59658   0.78579    0.000
 4678.00    0.57888   0.78183    0.000
 4679.00    0.59221   0.78583    0.000
 4680.00    0.63327   0.79505    0.000
 4681.00    0.60230   0.80078    0.000
 4682.00    0.51461   0.79967    0.000
 4683.00    0.54709   0.79666    0.000
 4684.00    0.66283   0.79484    0.000
 4685.00    0.77264   0.79476    0.000
 4686.00    0.87884   0.79620    0.000
 4687.00    0.73560   0.79579    0.000
 4688.00    0.46009   0.79288    0.000
 4689.00    0.53719   0.79269    0.000
 4690.00    0.77653   0.79754    0.000
 4691.00    0.87260   0.80573    0.000
 4692.00    0.91191   0.81476    0.000
 4693.00    0.81028   0.81784    0.000
 4694.00    0.66106   0.80741    0.000
 4695.00    0.71930   0.78768    0.000
 4696.00    0.83641   0.77369    0.000
 4697.00    0.80640   0.77130    0.000
 4698.00    0.74195   0.77090    0.000
 4699.00    0.65235   0.76609    0.000
 4700.00    0.55803   0.76356    0.000
 4701.00    0.74244   0.77018    0.000
 4702.00    0.96739   0.77937    0.000
 4703.00    0.91287   0.77988    0.000
 4704.00    0.82881   0.77171    0.000
 4705.00    0.64300   0.76415    0.000
 4706.00    0.45021   0.76477    0.000
 4707.00    0.52747   0.77506    0.000
 4708.00    0.61391   0.78597    0.000
 4709.00    0.60505   0.78374    0.000
 4710.00    0.59559   0.76993    0.000
 4711.00    0.57179   0.76087    0.000
 4712.00    0.54466   0.76777    0.000
 4713.00    0.46641   0.78626    0.000
 4714.00    0.40972   0.80419    0.000
 4715.00    0.56450   0.81607    0.000
 4716.00    0.71825   0.82421    0.000
 4717.00    0.86481   0.82815    0.000
 4718.00    0.97802   0.82517    0.000
 4719.00    0.90981   0.81861    0.000
 4720.00    0.83988   0.81690    0.000
 4721.00    0.76244   0.82219    0.000
 4722.00    0.69774   0.82423    0.000
 4723.00    0.67877   0.81088    0.000
 4724.00    0.69790   0.78384    0.000
 4725.00    0.83173   0.75939    0.000
 4726.00    0.88369   0.74972    0.000
 4727.00    0.72591   0.75236    0.000
 4728.00    0.64402   0.76093    0.000
 4729.00    0.72943   0.77215    0.000
 4730.00    0.74501   0.78226    0.000
 4731.00    0.62708   0.78839    0.000
 4732.00    0.56821   0.78846    0.000
 4733.00    0.60784   0.78244    0.000
 4734.00    0.63779   0.78050    0.000
 4735.00    0.65357   0.78931    0.000
 4736.00    0.67394   0.79720    0.000
 4737.00    0.70018   0.79467    0.000
 4738.00    0.69473   0.78969    0.000
 4739.00    0.65338   0.79140    0.000
 4740.00    0.65350   0.79661    0.000
 4741.00    0.69504   0.79806    0.000
 4742.00    0.75809   0.79759    0.000
 4743.00    0.84011   0.80118    0.000
 4744.00    0.81092   0.80594    0.000
 4745.00    0.69538   0.80664    0.000
 4746.00    0.65743   0.80556    0.000
 4747.00    0.67243   0.80449    0.000
 4748.00    0.63854   0.79986    0.000
 4749.00    0.57539   0.79085    0.000
 4750.00    0.56999   0.78159    0.000
 4751.00    0.59473   0.77518    0.000
 4752.00    0.66432   0.77234    0.000
 4753.00    0.75422   0.77268    0.000
 4754.00    0.83567   0.77560    0.000
 4755.00    0.91383   0.78063    0.000
 4756.00    0.80843   0.78577    0.000
 4757.00    0.64220   0.78559    0.000
 4758.00    0.56507   0.77557    0.000
 4759.00    0.51270   0.76056    0.000
 4760.00    0.55249   0.74918    0.000
 4761.00    0.61337   0.74131    0.017
 4762.00    0.69881   0.73430    0.017
 4763.00    0.78875   0.73289    0.017
 4764.00    0.83220   0.74192    0.017
 4765.00    0.86911   0.75794    0.017
 4766.00    0.72621   0.77275    0.017
 4767.00    0.56507   0.77799    0.017
 4768.00    0.56078   0.77233    0.017
 4769.00    0.56663   0.76679    0.017
 4770.00    0.35318   0.77192    0.017
 4771.00    0.13369   0.78375    0.016
 4772.00    0.20626   0.79102    0.016
 4773.00    0.28770   0.79207    0.016
 4774.00    0.62648   0.79275    0.016
 4775.00    0.93280   0.79229    0.016
 4776.00    0.77005   0.78769    0.016
 4777.00    0.61691   0.78198    0.016
 4778.00    0.55413   0.77623    0.016
 4779.00    0.50214   0.76720    0.016
 4780.00    0.52406   0.75822    0.016
 4781.00    0.55895   0.75598    0.016
 4782.00    0.66257   0.75622    0.016
 4783.00    0.75697   0.75270    0.016
 4784.00    0.81214   0.75037    0.016
 4785.00    0.84921   0.75168    0.016
 4786.00    0.82260   0.75228    0.016
 4787.00    0.78485   0.75341    0.016
 4788.00    0.71418   0.75868    0.016
 4789.00    0.64945   0.76876    0.016
 4790.00    0.59966   0.78338    0.016
 4791.00    0.58094   0.79775    0.016
 4792.00    0.62960   0.80342    0.016
 4793.00    0.67444   0.79732    0.016
 4794.00    0.71208   0.78342    0.016
 4795.00    0.73185   0.76752    0.016
 4796.00    0.72226   0.75627    0.016
 4797.00    0.71540   0.75631    0.016
 4798.00    0.71246   0.76770    0.016
 4799.00    0.69671   0.78078    0.016
 4800.00    0.66473   0.78424    0.016
 4801.00    0.65428   0.77595    0.016
 4802.00    0.66787   0.76400    0.016
 4803.00    0.64635   0.75571    0.016
 4804.00    0.59024   0.75062    0.016
 4805.00    0.53888   0.74869    0.016
 4806.00    0.49164   0.75245    0.016
 4807.00    0.47388   0.75906    0.016
 4808.00    0.47868   0.76276    0.016
 4809.00    0.56654   0.76263    0.016
 4810.00    0.71028   0.76174    0.016
 4811.00    0.82953   0.76246    0.016
 4812.00    0.93433   0.76557    0.016
 4813.00    0.88127   0.77125    0.016
 4814.00    0.74709   0.77780    0.016
 4815.00    0.75134   0.78264    0.016
 4816.00    0.81722   0.78449    0.016
 4817.00    0.85700   0.78242    0.016
 4818.00    0.88680   0.77451    0.016
 4819.00    0.78513   0.75847    0.016
 4820.00    0.64073   0.73984    0.016
 4821.00    0.65901   0.73345    0.016
 4822.00    0.72157   0.74324    0.016
 4823.00    0.76851   0.75501    0.016
 4824.00    0.81196   0.75675    0.016
 4825.00    0.69995   0.75113    0.016
 4826.00    0.56023   0.74670    0.016
 4827.00    0.49602   0.74420    0.016
 4828.00    0.44211   0.73852    0.016
 4829.00    0.51314   0.73324    0.016
 4830.00    0.59631   0.73659    0.016
 4831.00    0.56857   0.74532    0.016
 4832.00    0.53411   0.75012    0.016
 4833.00    0.62070   0.74948    0.016
 4834.00    0.71014   0.74597    0.016
 4835.00    0.73560   0.73822    0.016
 4836.00    0.75401   0.72721    0.016
 4837.00    0.58810   0.72031    0.015
 4838.00    0.43766   0.72013    0.015
 4839.00    0.49824   0.72034    0.016
 4840.00    0.55650   0.71917    0.016
 4841.00    0.59379   0.72321    0.016
 4842.00    0.64465   0.73168    0.016
 4843.00    0.78551   0.73343    0.016
 4844.00    0.87010   0.72262    0.016
 4845.00    0.66433   0.70721    0.015
 4846.00    0.53328   0.70005    0.015
 4847.00    0.71330   0.70219    0.016
 4848.00    0.86411   0.70305    0.000
 4849.00    0.91432   0.69645    0.000
 4850.00    0.90113   0.68126    0.000
 4851.00    0.70409   0.65644    0.000
 4852.00    0.56016   0.63032    0.000
 4853.00    0.54767   0.61573    0.000
 4854.00    0.51983   0.60807    0.000
 4855.00    0.45923   0.58787    0.000
 4856.00    0.47539   0.54557    0.000
 4857.00    0.63378   0.49415    0.000
 4858.00    0.77210   0.46427    0.000
 4859.00    0.87795   0.47739    0.000
 4860.00    0.86907   0.51936    0.000
 4861.00    0.69729   0.56139    0.000
 4862.00    0.67895   0.59385    0.000
 4863.00    0.85232   0.61920    0.000
 4864.00    0.86397   0.63743    0.000
 4865.00    0.69756   0.64881    0.000
 4866.00    0.61050   0.65169    0.000
 4867.00    0.60053   0.64202    0.000
 4868.00    0.65591   0.62840    0.000
 4869.00    0.76727   0.62996    0.000
 4870.00    0.73277   0.64863    0.000
 4871.00    0.58825   0.66767    0.000
 4872.00    0.47879   0.67852    0.000
 4873.00    0.39256   0.68650    0.000
 4874.00    0.49651   0.69613    0.000
 4875.00    0.71084   0.70806    0.016
 4876.00    0.75118   0.71900    0.016
 4877.00    0.70352   0.71974    0.016
 4878.00    0.59902   0.71027    0.016
 4879.00    0.46965   0.70358    0.016
 4880.00    0.54069   0.70260    0.016
 4881.00    0.68707   0.69700    0.016
 4882.00    0.70449   0.68514    0.016
 4883.00    0.68078   0.67770    0.016
 4884.00    0.58773   0.68007    0.016
 4885.00    0.47619   0.68435    0.016
 4886.00    0.50358   0.67944    0.016
 4887.00    0.56129   0.66563    0.016
 4888.00    0.60482   0.66005    0.016
 4889.00    0.64588   0.67806    0.016
 4890.00    0.61863   0.71099    0.016
 4891.00    0.58239   0.73960    0.016
 4892.00    0.77503   0.75543    0.016
 4893.00    0.98895   0.75989    0.017
 4894.00    0.77493   0.75713    0.016
 4895.00    0.53666   0.74881    0.016
 4896.00    0.65795   0.73626    0.016
 4897.00    0.78515   0.72668    0.016
 4898.00    0.66276   0.72408    0.016
 4899.00    0.55117   0.72193    0.016
 4900.00    0.69573   0.71819    0.016
 4901.00    0.82518   0.72139    0.016
 4902.00    0.75924   0.73351    0.016
 4903.00    0.69764   0.74279    0.017
 4904.00    0.67375   0.73866    0.016
 4905.00    0.64994   0.72269    0.016
 4906.00    0.62667   0.70379    0.016
 4907.00    0.62734   0.69190    0.016
 4908.00    0.74842   0.69323    0.016
 4909.00    0.82226   0.70434    0.016
 4910.00    0.70381   0.71700    0.016
 4911.00    0.60633   0.72782    0.016
 4912.00    0.57959   0.73454    0.016
 4913.00    0.55568   0.72964    0.016
 4914.00    0.53982   0.70693    0.016
 4915.00    0.57810   0.67098    0.016
 4916.00    0.74810   0.63608    0.016
 4917.00    0.76491   0.61690    0.016
 4918.00    0.46017   0.62004    0.016
 4919.00    0.32365   0.63841    0.016
 4920.00    0.49403   0.65617    0.016
 4921.00    0.60112   0.66800    0.016
 4922.00    0.60726   0.68254    0.016
 4923.00    0.59189   0.70283    0.016
 4924.00    0.54639   0.72093    0.016
 4925.00    0.57134   0.73340    0.016
 4926.00    0.68304   0.74145    0.016
 4927.00    0.69914   0.74358    0.016
 4928.00    0.61145   0.73776    0.016
 4929.00    0.56335   0.72254    0.016
 4930.00    0.55316   0.70380    0.016
 4931.00    0.57686   0.69606    0.016
 4932.00    0.62916   0.70049    0.015
 4933.00    0.64948   0.69936    0.015
 4934.00    0.64603   0.68322    0.016
 4935.00    0.67737   0.66501    0.016
 4936.00    0.73144   0.66391    0.016
 4937.00    0.74717   0.68290    0.016
 4938.00    0.74099   0.70642    0.016
 4939.00    0.59047   0.72168    0.015
 4940.00    0.36809   0.72912    0.000
 4941.00    0.40694   0.73002    0.000
 4942.00    0.55827   0.72495    0.000
 4943.00    0.67836   0.72138    0.000
 4944.00    0.78691   0.72476    0.000
 4945.00    0.80273   0.73071    0.000
 4946.00    0.78954   0.73463    0.000
 4947.00    0.72141   0.73707    0.000
 4948.00    0.63894   0.73706    0.000
 4949.00    0.65587   0.73177    0.000
 4950.00    0.69395   0.72328    0.000
 4951.00    0.64991   0.71446    0.000
 4952.00    0.59203   0.69945    0.000
 4953.00    0.52947   0.67166    0.000
 4954.00    0.46631   0.64490    0.000
 4955.00    0.58222   0.64583    0.000
 4956.00    0.71401   0.67456    0.000
 4957.00    0.67842   0.70288    0.000
 4958.00    0.63401   0.71414    0.000
 4959.00    0.69508   0.71468    0.000
 4960.00    0.75636   0.71145    0.000
 4961.00    0.67680   0.70189    0.000
 4962.00    0.59987   0.68733    0.000
 4963.00    0.58027   0.67719    0.000
 4964.00    0.56126   0.67545    0.000
 4965.00    0.54944   0.67828    0.000
 4966.00    0.54629   0.68261    0.000
 4967.00    0.61577   0.68823    0.000
 4968.00    0.66631   0.69590    0.000
 4969.00    0.59863   0.70442    0.000
 4970.00    0.54286   0.71112    0.000
 4971.00    0.54546   0.71423    0.000
 4972.00    0.55381   0.71244    0.000
 4973.00    0.58500   0.70560    0.000
 4974.00    0.62621   0.69469    0.000
 4975.00    0.70051   0.68264    0.000
 4976.00    0.74992   0.67355    0.000
 4977.00    0.72973   0.66452    0.000
 4978.00    0.69550   0.64808    0.000
 4979.00    0.62768   0.62787    0.000
 4980.00    0.60287   0.61807    0.000
 4981.00    0.66689   0.62452    0.000
 4982.00    0.71184   0.64087    0.000
 4983.00    0.72250   0.66053    0.000
 4984.00    0.68804   0.67766    0.000
 4985.00    0.58268   0.68506    0.000
 4986.00    0.53854   0.68173    0.000
 4987.00    0.57884   0.67451    0.000
 4988.00    0.58328   0.67124    0.000
 4989.00    0.54417   0.67295    0.000
 4990.00    0.58074   0.67446    0.000
 4991.00    0.69831   0.67580    0.000
 4992.00    0.68892   0.68006    0.000
 4993.00    0.55967   0.68361    0.000
 4994.00    0.48320   0.68133    0.000
 4995.00    0.45065   0.67162    0.000
 4996.00    0.49926   0.65664    0.000
 4997.00    0.60735   0.64329    0.000
 4998.00    0.69991   0.63735    0.000
 4999.00    0.78247   0.63807    0.000
 5000.00    0.78716   0.63902    0.000
 5001.00    0.74802   0.63275    0.000
 5002.00    0.78157   0.62053    0.000
 5003.00    0.85074   0.61552    0.000
 5004.00    0.84081   0.62733    0.000
 5005.00    0.79738   0.64722    0.000
 5006.00    0.72623   0.65874    0.000
 5007.00    0.64501   0.65607    0.000
 5008.00    0.62182   0.64248    0.000
 5009.00    0.61643   0.62344    0.000
 5010.00    0.66601   0.60652    0.000
 5011.00    0.72962   0.59870    0.000
 5012.00    0.75997   0.60204    0.000
 5013.00    0.78342   0.61038    0.000
 5014.00    0.75137   0.61541    0.000
 5015.00    0.71024   0.61866    0.000
 5016.00    0.75971   0.62541    0.000
 5017.00    0.82029   0.63191    0.000
 5018.00    0.66987   0.63219    0.000
 5019.00    0.50161   0.63114    0.000
 5020.00    0.56842   0.63705    0.000
 5021.00    0.64671   0.64691    0.000
 5022.00    0.44957   0.65112    0.000
 5023.00    0.25382   0.64622    0.000
 5024.00    0.40319   0.63917    0.000
 5025.00    0.54335   0.64064    0.000
 5026.00    0.49894   0.65071    0.000
 5027.00    0.46164   0.66082    0.000
 5028.00    0.50735   0.66913    0.000
 5029.00    0.54304   0.67789    0.015
 5030.00    0.49767   0.68183    0.015
 5031.00    0.47920   0.67224    0.015
 5032.00    0.62380   0.65245    0.015
 5033.00    0.73187   0.63828    0.015
 5034.00    0.66523   0.63499    0.015
 5035.00    0.61328   0.62866    0.015
 5036.00    0.61854   0.60869    0.015
 5037.00    0.59828   0.58464    0.015
 5038.00    0.49520   0.57845    0.015
 5039.00    0.43365   0.60004    0.015
 5040.00    0.48610   0.63425    0.015
 5041.00    0.54193   0.66187    0.015
 5042.00    0.60568   0.67724    0.015
 5043.00    0.60716   0.67799    0.015
 5044.00    0.48207   0.66300    0.015
 5045.00    0.43840   0.64183    0.015
 5046.00    0.53880   0.62830    0.015
 5047.00    0.58094   0.62547    0.015
 5048.00    0.53290   0.62828    0.015
 5049.00    0.51354   0.63520    0.015
 5050.00    0.53318   0.64605    0.015
 5051.00    0.51409   0.65512    0.015
 5052.00    0.44863   0.65777    0.015
 5053.00    0.45372   0.65830    0.015
 5054.00    0.53329   0.66280    0.015
 5055.00    0.60104   0.66963    0.015
 5056.00    0.65780   0.67494    0.015
 5057.00    0.67662   0.67970    0.015
 5058.00    0.66433   0.68321    0.015
 5059.00    0.60956   0.67901    0.014
 5060.00    0.52410   0.66248    0.014
 5061.00    0.51594   0.64072    0.014
 5062.00    0.55680   0.62869    0.014
 5063.00    0.56107   0.62959    0.014
 5064.00    0.54505   0.63280    0.014
 5065.00    0.55646   0.63438    0.014
 5066.00    0.58110   0.63892    0.014
 5067.00    0.53763   0.64330    0.014
 5068.00    0.46580   0.64035    0.014
 5069.00    0.57803   0.63487    0.014
 5070.00    0.75581   0.63542    0.014
 5071.00    0.81232   0.63872    0.014
 5072.00    0.83237   0.63920    0.014
 5073.00    0.70224   0.63898    0.014
 5074.00    0.53460   0.63598    0.014
 5075.00    0.48506   0.62147    0.014
 5076.00    0.45946   0.59981    0.014
 5077.00    0.42904   0.58904    0.014
 5078.00    0.39785   0.59484    0.014
 5079.00    0.41098   0.60546    0.014
 5080.00    0.42935   0.61352    0.014
 5081.00    0.47908   0.62221    0.014
 5082.00    0.53133   0.63180    0.014
 5083.00    0.49904   0.63749    0.014
 5084.00    0.46296   0.63897    0.013
 5085.00    0.57646   0.64054    0.014
 5086.00    0.68908   0.64339    0.014
 5087.00    0.66996   0.64597    0.013
 5088.00    0.64605   0.64946    0.013
 5089.00    0.53305   0.65507    0.013
 5090.00    0.43221   0.65887    0.013
 5091.00    0.46691   0.65588    0.013
 5092.00    0.49748   0.64584    0.013
 5093.00    0.49591   0.63129    0.013
 5094.00    0.49944   0.61442    0.014
 5095.00    0.53300   0.59986    0.014
 5096.00    0.55653   0.59658    0.014
 5097.00    0.53329   0.60817    0.014
 5098.00    0.51358   0.62462    0.014
 5099.00    0.50738   0.63316    0.014
 5100.00    0.50838   0.63188    0.013
 5101.00    0.53225   0.62726    0.014
 5102.00    0.57704   0.62289    0.014
 5103.00    0.67826   0.61698    0.014
 5104.00    0.73132   0.61011    0.014
 5105.00    0.67303   0.60586    0.014
 5106.00    0.59798   0.60467    0.014
 5107.00    0.48945   0.60743    0.014
 5108.00    0.42877   0.61574    0.014
 5109.00    0.45149   0.62539    0.014
 5110.00    0.48042   0.63179    0.014
 5111.00    0.51884   0.63585    0.014
 5112.00    0.58272   0.64005    0.014
 5113.00    0.68071   0.64580    0.014
 5114.00    0.75122   0.65138    0.015
 5115.00    0.78929   0.65216    0.015
 5116.00    0.76121   0.64605    0.015
 5117.00    0.66431   0.63509    0.015
 5118.00    0.60402   0.62183    0.015
 5119.00    0.57732   0.60708    0.015
 5120.00    0.59586   0.59362    0.015
 5121.00    0.65100   0.58732    0.014
 5122.00    0.61941   0.58886    0.014
 5123.00    0.52610   0.59193    0.015
 5124.00    0.52902   0.59227    0.014
 5125.00    0.59206   0.59166    0.014
 5126.00    0.53832   0.59381    0.014
 5127.00    0.42083   0.60019    0.015
 5128.00    0.48996   0.60794    0.015
 5129.00    0.64762   0.61306    0.015
 5130.00    0.59602   0.61677    0.015
 5131.00    0.45879   0.62237    0.014
 5132.00    0.52725   0.62567    0.015
 5133.00    0.66763   0.61969    0.015
 5134.00    0.68345   0.60683    0.015
 5135.00    0.66254   0.59560    0.015
 5136.00    0.64914   0.59298    0.015
 5137.00    0.63759   0.59751    0.015
 5138.00    0.66241   0.59792    0.015
 5139.00    0.69441   0.59197    0.015
 5140.00    0.62141   0.59044    0.015
 5141.00    0.53223   0.59405    0.015
 5142.00    0.51069   0.59360    0.014
 5143.00    0.49686   0.58880    0.014
 5144.00    0.39716   0.58674    0.014
 5145.00    0.29091   0.59022    0.014
 5146.00    0.41275   0.59430    0.014
 5147.00    0.54397   0.59296    0.014
 5148.00    0.52887   0.58751    0.014
 5149.00    0.51134   0.58326    0.014
 5150.00    0.44262   0.58294    0.014
 5151.00    0.38260   0.58791    0.014
 5152.00    0.47349   0.59851    0.014
 5153.00    0.55662   0.61169    0.014
 5154.00    0.55719   0.62228    0.014
 5155.00    0.54478   0.62687    0.014
 5156.00    0.43478   0.62697    0.014
 5157.00    0.35096   0.62472    0.014
 5158.00    0.41702   0.61840    0.014
 5159.00    0.48382   0.60865    0.014
 5160.00    0.55399   0.59747    0.014
 5161.00    0.60808   0.57965    0.014
 5162.00    0.60216   0.54970    0.014
 5163.00    0.60272   0.51442    0.014
 5164.00    0.62353   0.49094    0.014
 5165.00    0.62789   0.49201    0.014
 5166.00    0.58870   0.51008    0.014
 5167.00    0.55183   0.51971    0.014
 5168.00    0.52026   0.50652    0.014
 5169.00    0.52043   0.48969    0.014
 5170.00    0.58311   0.49863    0.013
 5171.00    0.61470   0.53284    0.013
 5172.00    0.59293   0.56652    0.013
 5173.00    0.53168   0.58471    0.013
 5174.00    0.41112   0.59193    0.013
 5175.00    0.32936   0.59366    0.014
 5176.00    0.29886   0.58891    0.014
 5177.00    0.28985   0.57505    0.013
 5178.00    0.30583   0.54907    0.013
 5179.00    0.34093   0.51373    0.013
 5180.00    0.39563   0.48826    0.013
 5181.00    0.43515   0.49517    0.013
 5182.00    0.46093   0.53045    0.013
 5183.00    0.48772   0.56698    0.013
 5184.00    0.51531   0.58685    0.013
 5185.00    0.57652   0.59426    0.013
 5186.00    0.66131   0.59724    0.013
 5187.00    0.65568   0.59083    0.013
 5188.00    0.59440   0.57209    0.013
 5189.00    0.56050   0.55681    0.014
 5190.00    0.54130   0.55768    0.000
 5191.00    0.43835   0.56605    0.000
 5192.00    0.29630   0.57229    0.000
 5193.00    0.32083   0.57896    0.000
 5194.00    0.41237   0.58836    0.000
 5195.00    0.47738   0.59774    0.000
 5196.00    0.53329   0.60393    0.000
 5197.00    0.54026   0.60479    0.000
 5198.00    0.53310   0.60080    0.000
 5199.00    0.58910   0.59324    0.000
 5200.00    0.66017   0.57997    0.000
 5201.00    0.64822   0.56011    0.000
 5202.00    0.62028   0.54218    0.000
 5203.00    0.60664   0.53429    0.000
 5204.00    0.59513   0.53268    0.000
 5205.00    0.51187   0.53377    0.000
 5206.00    0.42075   0.54266    0.000
 5207.00    0.51293   0.56055    0.000
 5208.00    0.61835   0.58123    0.000
 5209.00    0.61165   0.59785    0.000
 5210.00    0.60076   0.60438    0.000
 5211.00    0.60850   0.59827    0.014
 5212.00    0.61567   0.58605    0.014
 5213.00    0.59909   0.58019    0.014
 5214.00    0.58348   0.58673    0.014
 5215.00    0.58350   0.60035    0.014
 5216.00    0.58570   0.61212    0.014
 5217.00    0.61002   0.61796    0.014
 5218.00    0.62817   0.61771    0.014
 5219.00    0.60144   0.60989    0.014
 5220.00    0.57524   0.59323    0.014
 5221.00    0.55204   0.56967    0.014
 5222.00    0.54079   0.54474    0.014
 5223.00    0.58272   0.52930    0.014
 5224.00    0.61462   0.53556    0.014
 5225.00    0.60988   0.56136    0.014
 5226.00    0.59662   0.58802    0.014
 5227.00    0.55729   0.60143    0.014
 5228.00    0.53214   0.59968    0.014
 5229.00    0.54390   0.58737    0.014
 5230.00    0.53093   0.57608    0.014
 5231.00    0.46264   0.57634    0.014
 5232.00    0.45043   0.58802    0.014
 5233.00    0.54688   0.60383    0.014
 5234.00    0.58902   0.61530    0.014
 5235.00    0.53935   0.61874    0.014
 5236.00    0.52080   0.61741    0.013
 5237.00    0.54834   0.61595    0.014
 5238.00    0.53931   0.61510    0.013
 5239.00    0.48269   0.61449    0.013
 5240.00    0.50632   0.61640    0.013
 5241.00    0.62199   0.61889    0.013
 5242.00    0.68849   0.61256    0.013
 5243.00    0.70527   0.59557    0.013
 5244.00    0.64844   0.58100    0.013
 5245.00    0.52594   0.57675    0.013
 5246.00    0.52553   0.57528    0.013
 5247.00    0.62111   0.57302    0.013
 5248.00    0.65393   0.57622    0.013
 5249.00    0.64337   0.58376    0.013
 5250.00    0.61967   0.58668    0.013
 5251.00    0.58801   0.58408    0.013
 5252.00    0.64576   0.58640    0.014
 5253.00    0.75082   0.60002    0.014
 5254.00    0.74602   0.61660    0.013
 5255.00    0.69078   0.62428    0.013
 5256.00    0.65354   0.61908    0.013
 5257.00    0.62342   0.60312    0.013
 5258.00    0.58067   0.58034    0.013
 5259.00    0.53367   0.55532    0.014
 5260.00    0.62059   0.53296    0.014
 5261.00    0.74541   0.51740    0.014
 5262.00    0.67903   0.51218    0.014
 5263.00    0.56801   0.51866    0.014
 5264.00    0.60795   0.52647    0.015
 5265.00    0.67620   0.51936    0.015
 5266.00    0.68065   0.50404    0.014
 5267.00    0.67586   0.50668    0.014
 5268.00    0.64660   0.53165    0.014
 5269.00    0.61476   0.55637    0.015
 5270.00    0.64060   0.56595    0.015
 5271.00    0.67038   0.56504    0.015
 5272.00    0.54319   0.56627    0.015
 5273.00    0.41073   0.57926    0.015
 5274.00    0.51148   0.59911    0.015
 5275.00    0.60900   0.61072    0.015
 5276.00    0.59482   0.60733    0.015
 5277.00    0.57841   0.59460    0.015
 5278.00    0.52805   0.58086    0.014
 5279.00    0.48413   0.57073    0.014
 5280.00    0.50291   0.56839    0.014
 5281.00    0.54050   0.57941    0.014
 5282.00    0.71052   0.60114    0.014
 5283.00    0.83348   0.61961    0.014
 5284.00    0.70127   0.62555    0.014
 5285.00    0.59290   0.62424    0.014
 5286.00    0.58815   0.62448    0.014
 5287.00    0.59634   0.62669    0.014
 5288.00    0.65076   0.62577    0.014
 5289.00    0.69434   0.62053    0.014
 5290.00    0.70530   0.61449    0.014
 5291.00    0.70208   0.60785    0.014
 5292.00    0.66256   0.59464    0.014
 5293.00    0.66056   0.57329    0.014
 5294.00    0.74107   0.55509    0.014
 5295.00    0.77283   0.55362    0.014
 5296.00    0.71159   0.56616    0.014
 5297.00    0.66363   0.57739    0.014
 5298.00    0.63778   0.58228    0.014
 5299.00    0.64919   0.58941    0.013
 5300.00    0.71495   0.60312    0.013
 5301.00    0.73928   0.61658    0.013
 5302.00    0.71042   0.62154    0.013
 5303.00    0.71082   0.61805    0.013
 5304.00    0.74429   0.61412    0.013
 5305.00    0.74814   0.61615    0.013
 5306.00    0.72243   0.62161    0.013
 5307.00    0.66616   0.62412    0.013
 5308.00    0.58301   0.62167    0.013
 5309.00    0.52515   0.61660    0.013
 5310.00    0.48687   0.61154    0.013
 5311.00    0.51824   0.60665    0.013
 5312.00    0.59708   0.60048    0.013
 5313.00    0.63859   0.59499    0.013
 5314.00    0.65781   0.59431    0.013
 5315.00    0.61797   0.59728    0.013
 5316.00    0.54737   0.59911    0.013
 5317.00    0.58007   0.59837    0.013
 5318.00    0.65942   0.59505    0.013
 5319.00    0.64871   0.58726    0.013
 5320.00    0.60302   0.57612    0.013
 5321.00    0.52605   0.56792    0.013
 5322.00    0.43875   0.56269    0.013
 5323.00    0.43095   0.54868    0.013
 5324.00    0.44519   0.52385    0.013
 5325.00    0.40760   0.50945    0.013
 5326.00    0.35818   0.52318    0.013
 5327.00    0.40282   0.55268    0.013
 5328.00    0.46464   0.57446    0.013
 5329.00    0.48729   0.58319    0.014
 5330.00    0.50445   0.58888    0.014
 5331.00    0.48987   0.59671    0.014
 5332.00    0.47209   0.60175    0.014
 5333.00    0.51673   0.60050    0.014
 5334.00    0.56537   0.59466    0.014
 5335.00    0.61593   0.58401    0.014
 5336.00    0.66661   0.56856    0.014
 5337.00    0.74763   0.55767    0.014
 5338.00    0.82176   0.56174    0.014
 5339.00    0.69930   0.57600    0.014
 5340.00    0.58457   0.58629    0.014
 5341.00    0.58097   0.58634    0.014
 5342.00    0.57762   0.58087    0.013
 5343.00    0.57665   0.57688    0.013
 5344.00    0.58496   0.57439    0.013
 5345.00    0.65660   0.57104    0.013
 5346.00    0.69942   0.57179    0.013
 5347.00    0.59017   0.58141    0.013
 5348.00    0.52944   0.59436    0.014
 5349.00    0.67481   0.60327    0.014
 5350.00    0.76480   0.60921    0.014
 5351.00    0.66070   0.61602    0.014
 5352.00    0.58725   0.62219    0.014
 5353.00    0.60417   0.62489    0.014
 5354.00    0.64067   0.62486    0.013
 5355.00    0.72637   0.62339    0.013
 5356.00    0.77448   0.61965    0.013
 5357.00    0.74121   0.61209    0.013
 5358.00    0.70924   0.60198    0.013
 5359.00    0.67967   0.59337    0.013
 5360.00    0.64626   0.58764    0.013
 5361.00    0.60652   0.58289    0.013
 5362.00    0.57679   0.57932    0.013
 5363.00    0.56148   0.57781    0.013
 5364.00    0.55581   0.57537    0.013
 5365.00    0.56235   0.56687    0.013
 5366.00    0.58367   0.55080    0.013
 5367.00    0.62148   0.53549    0.013
 5368.00    0.66425   0.53514   -2.000
 5369.00    0.71191   0.55366   -2.000
 5370.00    0.77487   0.57888   -2.000
 5371.00    0.85110   0.59630   -2.000
 5372.00    0.83914   0.60171   -2.000
 5373.00    0.75980   0.59973   -2.000
 5374.00    0.68222   0.59760   -2.000
 5375.00    0.60581   0.59780   -2.000
 5376.00    0.57774   0.59674   -2.000
 5377.00    0.57811   0.59227   -2.000
 5378.00    0.52321   0.58643   -2.000
 5379.00    0.43998   0.58191   -2.000
 5380.00    0.46204   0.58150   -2.000
 5381.00    0.53088   0.58591   -2.000
 5382.00    0.57547   0.59059   -2.000
 5383.00    0.61080   0.59105    0.013
 5384.00    0.57299   0.58724    0.013
 5385.00    0.51145   0.58023    0.013
 5386.00    0.62048   0.57153    0.013
 5387.00    0.77583   0.56439    0.013
 5388.00    0.64090   0.56084    0.013
 5389.00    0.44130   0.55980    0.013
 5390.00    0.55999   0.55931    0.013
 5391.00    0.73520   0.55674    0.013
 5392.00    0.67994   0.54886    0.013
 5393.00    0.59341   0.53844    0.013
 5394.00    0.55915   0.53641    0.013
 5395.00    0.52994   0.54679    0.013
 5396.00    0.57634   0.55918    0.013
 5397.00    0.62728   0.56545    0.013
 5398.00    0.61977   0.56681    0.014
 5399.00    0.61030   0.56179    0.014
 5400.00    0.52838   0.54632    0.014
 5401.00    0.45031   0.52612    0.014
 5402.00    0.47148   0.51510    0.013
 5403.00    0.49212   0.52002    0.013
 5404.00    0.50536   0.53196    0.013
 5405.00    0.52743   0.53707    0.013
 5406.00    0.62898   0.53479    0.013
 5407.00    0.70275   0.53720    0.013
 5408.00    0.59299   0.54970    0.013
 5409.00    0.50327   0.56362    0.013
 5410.00    0.51668   0.57032    0.013
 5411.00    0.52603   0.57223    0.013
 5412.00    0.51851   0.57657    0.013
 5413.00    0.51849   0.58391    0.013
 5414.00    0.54422   0.58793    0.013
 5415.00    0.56505   0.58478    0.013
 5416.00    0.57169   0.57763    0.013
 5417.00    0.60246   0.57276    0.013
 5418.00    0.69282   0.57214    0.013
 5419.00    0.73999   0.57049    0.013
 5420.00    0.69518   0.56484    0.013
 5421.00    0.65301   0.56283    0.012
 5422.00    0.61573   0.57081    0.012
 5423.00    0.60344   0.58066    0.012
 5424.00    0.63155   0.57794    0.012
 5425.00    0.62724   0.56049    0.013
 5426.00    0.57697   0.54399    0.013
 5427.00    0.55944   0.54226    0.012
 5428.00    0.58273   0.54774    0.012
 5429.00    0.60429   0.54629    0.012
 5430.00    0.62393   0.53838    0.012
 5431.00    0.64413   0.53341    0.013
 5432.00    0.66487   0.53692    0.013
 5433.00    0.65185   0.54871    0.013
 5434.00    0.60997   0.56529    0.013
 5435.00    0.62010   0.58124    0.013
 5436.00    0.66939   0.59184    0.013
 5437.00    0.63712   0.59627    0.013
 5438.00    0.55088   0.59669    0.013
 5439.00    0.55870   0.59415    0.013
 5440.00    0.62101   0.58595    0.013
 5441.00    0.63467   0.56898    0.013
 5442.00    0.62377   0.54666    0.013
 5443.00    0.57301   0.53118    0.013
 5444.00    0.50483   0.53347    0.013
 5445.00    0.54199   0.54976    0.013
 5446.00    0.61867   0.56568    0.013
 5447.00    0.57358   0.57245    0.013
 5448.00    0.48975   0.57069    0.013
 5449.00    0.41166   0.56276    0.013
 5450.00    0.33509   0.54923    0.013
 5451.00    0.40424   0.53380    0.013
 5452.00    0.50509   0.52702    0.013
 5453.00    0.52574   0.53642    0.013
 5454.00    0.53253   0.55508    0.013
 5455.00    0.56758   0.56869    0.013
 5456.00    0.60632   0.57044    0.013
 5457.00    0.51705   0.56313    0.013
 5458.00    0.41595   0.55222    0.013
 5459.00    0.46375   0.54323    0.013
 5460.00    0.51992   0.54194    0.013
 5461.00    0.56599   0.54815    0.013
 5462.00    0.61189   0.55462    0.013
 5463.00    0.66308   0.55786    0.013
 5464.00    0.71113   0.56002    0.013
 5465.00    0.68526   0.56062    0.013
 5466.00    0.65882   0.55781    0.013
 5467.00    0.62495   0.55383    0.013
 5468.00    0.58625   0.55053    0.012
 5469.00    0.50583   0.54610    0.012
 5470.00    0.43980   0.54041    0.012
 5471.00    0.46595   0.53374    0.012
 5472.00    0.48807   0.52402    0.013
 5473.00    0.48991   0.51614    0.012
 5474.00    0.50271   0.52046    0.012
 5475.00    0.55994   0.53417    0.012
 5476.00    0.60491   0.54176    0.012
 5477.00    0.60863   0.53741    0.012
 5478.00    0.60079   0.53175   -2.000
 5479.00    0.56015   0.53536   -2.000
 5480.00    0.52190   0.54701   -2.000
 5481.00    0.48948   0.55813   -2.000
 5482.00    0.50629   0.56059   -2.000
 5483.00    0.62623   0.55347   -2.000
 5484.00    0.95973   0.54515   -2.000
 5485.00    1.68215   0.54348   -2.000
 5486.00    2.26029   0.54722   -2.000
 5487.00    2.60877   0.55161   -2.000
 5488.00    2.74473   0.55384   -2.000
 5489.00    2.58380   0.55257   -2.000
 5490.00    2.07422   0.55005   -2.000
 5491.00    1.13603   0.54976   -2.000
 5492.00    0.41438   0.54960   -2.000
 5493.00   -0.07260   0.54682   -2.000
 5494.00   -0.17579   0.54615   -2.000
 5495.00    0.08789   0.55119   -2.000
 5496.00    0.33179   0.55484   -2.000
 5497.00    0.55902   0.55003   -2.000
 5498.00    0.60731   0.54144   -2.000
 5499.00    0.52279   0.53745   -2.000
 5500.00    0.50305   0.53825   -2.000
 5501.00    0.52556   0.53759   -2.000
 5502.00    0.52993   0.53306    0.013
 5503.00    0.52395   0.53062    0.013
 5504.00    0.54887   0.53515    0.013
 5505.00    0.58915   0.54166    0.013
 5506.00    0.56692   0.54283    0.013
 5507.00    0.51784   0.53733    0.013
 5508.00    0.53257   0.52839    0.013
 5509.00    0.57080   0.52149    0.013
 5510.00    0.60382   0.52076    0.012
 5511.00    0.63521   0.52543    0.012
 5512.00    0.63110   0.53246    0.012
 5513.00    0.61774   0.54066    0.012
 5514.00    0.70040   0.55001    0.012
 5515.00    0.80343   0.55791    0.012
 5516.00    0.74351   0.56088    0.012
 5517.00    0.65624   0.55959    0.012
 5518.00    0.60295   0.55761    0.012
 5519.00    0.55396   0.55661    0.012
 5520.00    0.56021   0.55514    0.012
 5521.00    0.57134   0.55087    0.012
 5522.00    0.57534   0.54272    0.012
 5523.00    0.57897   0.53162    0.012
 5524.00    0.53909   0.52215    0.012
 5525.00    0.49932   0.52157    0.012
 5526.00    0.52851   0.53106    0.012
 5527.00    0.55836   0.54221    0.012
 5528.00    0.60227   0.54715    0.012
 5529.00    0.64593   0.54576    0.012
 5530.00    0.68654   0.54155    0.012
 5531.00    0.71819   0.53763    0.012
 5532.00    0.67526   0.53684    0.012
 5533.00    0.63189   0.53921    0.012
 5534.00    0.58576   0.54237    0.012
 5535.00    0.54661   0.54628    0.012
 5536.00    0.54158   0.55167    0.012
 5537.00    0.55420   0.55582    0.012
 5538.00    0.63690   0.55488    0.012
 5539.00    0.68206   0.54940    0.012
 5540.00    0.60334   0.54437    0.012
 5541.00    0.55175   0.54264    0.012
 5542.00    0.57586   0.54315    0.012
 5543.00    0.59975   0.54602    0.012
 5544.00    0.62310   0.55205    0.012
 5545.00    0.62013   0.55850    0.012
 5546.00    0.56291   0.56196    0.012
 5547.00    0.53442   0.56181    0.012
 5548.00    0.55749   0.55853    0.012
 5549.00    0.57653   0.55273    0.012
 5550.00    0.58922   0.54671    0.012
 5551.00    0.59436   0.54378    0.012
 5552.00    0.58910   0.54431    0.012
 5553.00    0.58993   0.54532    0.012
 5554.00    0.59814   0.54525    0.012
 5555.00    0.60866   0.54508    0.012
 5556.00    0.62164   0.54472    0.012
 5557.00    0.61987   0.54260    0.012
 5558.00    0.60420   0.53839    0.012
 5559.00    0.56279   0.53409    0.012
 5560.00    0.50001   0.53168    0.012
 5561.00    0.49206   0.53006    0.012
 5562.00    0.52422   0.52784    0.012
 5563.00    0.53851   0.52640    0.012
 5564.00    0.54132   0.52646    0.012
 5565.00    0.58153   0.52668    0.012
 5566.00    0.64275   0.52771    0.012
 5567.00    0.66794   0.52985    0.012
 5568.00    0.67552   0.52932    0.012
 5569.00    0.64345   0.52663    0.011
 5570.00    0.59464   0.52797    0.011
 5571.00    0.57447   0.53309    0.011
 5572.00    0.56467   0.53660    0.011
 5573.00    0.52414   0.53795    0.011
 5574.00    0.47421   0.53890    0.011
 5575.00    0.50894   0.53979    0.011
 5576.00    0.56523   0.54063    0.012
 5577.00    0.59041   0.54030    0.012
 5578.00    0.60915   0.53808    0.011
 5579.00    0.58064   0.53558    0.012
 5580.00    0.54443   0.53243    0.012
 5581.00    0.54143   0.52524    0.012
 5582.00    0.54249   0.51250    0.012
 5583.00    0.46824   0.49794    0.012
 5584.00    0.38767   0.48820    0.012
 5585.00    0.41817   0.48731    0.011
 5586.00    0.45405   0.49425    0.011
 5587.00    0.48908   0.50406    0.012
 5588.00    0.52335   0.51091    0.012
 5589.00    0.51363   0.51288    0.012
 5590.00    0.50594   0.51338    0.012
 5591.00    0.53886   0.51809    0.012
 5592.00    0.56956   0.52665    0.012
 5593.00    0.57457   0.53042    0.012
 5594.00    0.57898   0.52456    0.012
 5595.00    0.57855   0.51520    0.012
 5596.00    0.59555   0.50850    0.012
 5597.00    0.71780   0.50372    0.012
 5598.00    0.80768   0.50035    0.012
 5599.00    0.74322   0.50230    0.012
 5600.00    0.67806   0.51256    0.012
 5601.00    0.61019   0.52742    0.012
 5602.00    0.57732   0.53991    0.012
 5603.00    0.65764   0.54630    0.012
 5604.00    0.70602   0.54742    0.012
 5605.00    0.66689   0.54610    0.012
 5606.00    0.63678   0.54511    0.012
 5607.00    0.62785   0.54599    0.012
 5608.00    0.64069   0.54722    0.012
 5609.00    0.69772   0.54339    0.011
 5610.00    0.70010   0.52917    0.011
 5611.00    0.60598   0.50860    0.011
 5612.00    0.57652   0.49612    0.011
 5613.00    0.64696   0.49933    0.011
 5614.00    0.66339   0.50949    0.011
 5615.00    0.60653   0.51596    0.011
 5616.00    0.55506   0.51870    0.011
 5617.00    0.51003   0.52219    0.011
 5618.00    0.48447   0.52513    0.011
 5619.00    0.47943   0.52159    0.011
 5620.00    0.49442   0.51077    0.011
 5621.00    0.52803   0.50150    0.011
 5622.00    0.53634   0.50206    0.011
 5623.00    0.52393   0.51010    0.011
 5624.00    0.51702   0.51912    0.011
 5625.00    0.51407   0.52692    0.011
 5626.00    0.50785   0.53327    0.011
 5627.00    0.49955   0.53677    0.011
 5628.00    0.50718   0.53666    0.011
 5629.00    0.52362   0.53365    0.011
 5630.00    0.52277   0.52898    0.011
 5631.00    0.51360   0.52354    0.011
 5632.00    0.55408   0.51771    0.011
 5633.00    0.61518   0.51267    0.011
 5634.00    0.61234   0.51059    0.011
 5635.00    0.58679   0.51137    0.011
 5636.00    0.55719   0.51159    0.011
 5637.00    0.52637   0.50957    0.011
 5638.00    0.52490   0.50840    0.011
 5639.00    0.53073   0.51023    0.011
 5640.00    0.57422   0.51342    0.011
 5641.00    0.62532   0.51626    0.011
 5642.00    0.56456   0.51866    0.011
 5643.00    0.48609   0.52062    0.011
 5644.00    0.46433   0.52112    0.011
 5645.00    0.44925   0.51988    0.011
 5646.00    0.51387   0.51920    0.011
 5647.00    0.58486   0.52155    0.011
 5648.00    0.56550   0.52544    0.011
 5649.00    0.54211   0.52624    0.011
 5650.00    0.55163   0.52180    0.011
 5651.00    0.56230   0.51591    0.011
 5652.00    0.61140   0.51206    0.011
 5653.00    0.65605   0.50606    0.011
 5654.00    0.61865   0.49499    0.011
 5655.00    0.58377   0.48752    0.011
 5656.00    0.57693   0.49083    0.011
 5657.00    0.56962   0.49776    0.011
 5658.00    0.55875   0.50000    0.011
 5659.00    0.54503   0.50080    0.011
 5660.00    0.51461   0.50609    0.011
 5661.00    0.49125   0.51347    0.011
 5662.00    0.50068   0.51658    0.011
 5663.00    0.51130   0.51394    0.011
 5664.00    0.52647   0.50995    0.011
 5665.00    0.54803   0.50879    0.011
 5666.00    0.58986   0.51072    0.011
 5667.00    0.62050   0.51479    0.011
 5668.00    0.62103   0.52098    0.011
 5669.00    0.62041   0.52771    0.011
 5670.00    0.61713   0.53121    0.011
 5671.00    0.62504   0.53054    0.011
 5672.00    0.65530   0.52936    0.011
 5673.00    0.66636   0.52954    0.011
 5674.00    0.64406   0.52863    0.011
 5675.00    0.61967   0.52548    0.011
 5676.00    0.59213   0.52184    0.011
 5677.00    0.58603   0.51764    0.012
 5678.00    0.60860   0.51156    0.012
 5679.00    0.62462   0.50657    0.012
 5680.00    0.63292   0.50663    0.012
 5681.00    0.61671   0.50943    0.011
 5682.00    0.57502   0.50910    0.011
 5683.00    0.54460   0.50477    0.011
 5684.00    0.52450   0.50148    0.011
 5685.00    0.53457   0.50351    0.011
 5686.00    0.56899   0.51007    0.011
 5687.00    0.55385   0.51755    0.011
 5688.00    0.50348   0.52350    0.011
 5689.00    0.53764   0.52646    0.011
 5690.00    0.62448   0.52592    0.011
 5691.00    0.60752   0.52357    0.011
 5692.00    0.53400   0.52139    0.011
 5693.00    0.53636   0.51855    0.011
 5694.00    0.57464   0.51378    0.011
 5695.00    0.60711   0.50851    0.011
 5696.00    0.63719   0.50385    0.011
 5697.00    0.59492   0.49923    0.011
 5698.00    0.52741   0.49638    0.011
 5699.00    0.49977   0.49795    0.011
 5700.00    0.48385   0.50195    0.011
 5701.00    0.52694   0.50278    0.011
 5702.00    0.58440   0.49783    0.011
 5703.00    0.58476   0.48973    0.011
 5704.00    0.57387   0.48193    0.011
 5705.00    0.55614   0.47672    0.011
 5706.00    0.53736   0.47570    0.011
 5707.00    0.53965   0.47812    0.011
 5708.00    0.54432   0.48325    0.011
 5709.00    0.57148   0.49206    0.011
 5710.00    0.60034   0.50257    0.011
 5711.00    0.56144   0.51067    0.011
 5712.00    0.51978   0.51511    0.011
 5713.00    0.51801   0.51692    0.011
 5714.00    0.51532   0.51764    0.011
 5715.00    0.46187   0.51907    0.011
 5716.00    0.41486   0.52164    0.011
 5717.00    0.47862   0.52473    0.011
 5718.00    0.53666   0.52784    0.011
 5719.00    0.53426   0.52996    0.011
 5720.00    0.52827   0.52982    0.011
 5721.00    0.49544   0.52692    0.011
 5722.00    0.46506   0.52138    0.011
 5723.00    0.44869   0.51550    0.011
 5724.00    0.44474   0.51367    0.011
 5725.00    0.49726   0.51624    0.011
 5726.00    0.53869   0.51755    0.011
 5727.00    0.53890   0.51445    0.011
 5728.00    0.54728   0.51161    0.011
 5729.00    0.58106   0.51398    0.011
 5730.00    0.59813   0.51955    0.011
 5731.00    0.57101   0.52317    0.011
 5732.00    0.54206   0.52289    0.010
 5733.00    0.50895   0.52035    0.010
 5734.00    0.49921   0.51804    0.010
 5735.00    0.53540   0.51706    0.010
 5736.00    0.56824   0.51691    0.010
 5737.00    0.59534   0.51648    0.010
 5738.00    0.61235   0.51530    0.010
 5739.00    0.61425   0.51461    0.010
 5740.00    0.59963   0.51649    0.000
 5741.00    0.56322   0.52032    0.000
 5742.00    0.52243   0.52172    0.000
 5743.00    0.47654   0.51750    0.000
 5744.00    0.48120   0.51110    0.000
 5745.00    0.53761   0.50936    0.000
 5746.00    0.56602   0.51302    0.000
 5747.00    0.56914   0.51512    0.000
 5748.00    0.56380   0.50989    0.000
 5749.00    0.55171   0.49986    0.000
 5750.00    0.56820   0.49343    0.000
 5751.00    0.60469   0.49663    0.000
 5752.00    0.60719   0.50714    0.000
 5753.00    0.58882   0.51729    0.000
 5754.00    0.57854   0.52141    0.000
 5755.00    0.57259   0.51843    0.000
 5756.00    0.56594   0.51020    0.000
 5757.00    0.55897   0.50012    0.000
 5758.00    0.55926   0.49257    0.000
 5759.00    0.56246   0.49217    0.000
 5760.00    0.56154   0.50017    0.000
 5761.00    0.55923   0.51143    0.000
 5762.00    0.56619   0.51939    0.000
 5763.00    0.57582   0.52236    0.000
 5764.00    0.55632   0.52217    0.000
 5765.00    0.52989   0.52042    0.000
 5766.00    0.49819   0.51790    0.000
 5767.00    0.46549   0.51495    0.000
 5768.00    0.46858   0.51196    0.000
 5769.00    0.47700   0.50966    0.000
 5770.00    0.49573   0.50829    0.000
 5771.00    0.51558   0.50817    0.000
 5772.00    0.54158   0.50983    0.000
 5773.00    0.56803   0.51201    0.000
 5774.00    0.56454   0.51157    0.000
 5775.00    0.55994   0.50574    0.000
 5776.00    0.57796   0.49426    0.000
 5777.00    0.59500   0.48140    0.000
 5778.00    0.57364   0.47350    0.000
 5779.00    0.55061   0.47192    0.000
 5780.00    0.50066   0.47212    0.000
 5781.00    0.45331   0.47217    0.000
 5782.00    0.43215   0.47580    0.000
 5783.00    0.41539   0.48465    0.000
 5784.00    0.43048   0.49434    0.000
 5785.00    0.45522   0.49976    0.000
 5786.00    0.53354   0.49966    0.000
 5787.00    0.59825   0.49730    0.000
 5788.00    0.60260   0.49756    0.000
 5789.00    0.60547   0.50192    0.000
 5790.00    0.60289   0.50785    0.000
 5791.00    0.61331   0.51190   -2.000
 5792.00    0.66341   0.51104   -2.000
 5793.00    0.69328   0.50552   -2.000
 5794.00    0.67063   0.50115   -2.000
 5795.00    0.64492   0.50380   -2.000
 5796.00    0.61240   0.51194   -2.000
 5797.00    0.58633   0.51919   -2.000
 5798.00    0.57275   0.52132   -2.000
 5799.00    0.57548   0.51764   -2.000
 5800.00    0.60573   0.51021   -2.000
 5801.00    0.62209   0.50353   -2.000
 5802.00    0.61790   0.50104   -2.000
 5803.00    0.57956   0.50229   -2.000
 5804.00    0.49683   0.50475   -2.000
 5805.00    0.46862   0.50707   -2.000
 5806.00    0.50283   0.50933   -2.000
 5807.00    0.52992   0.51120   -2.000
 5808.00    0.54980   0.51165   -2.000
 5809.00    0.58740   0.51014   -2.000
 5810.00    0.64079   0.50642   -2.000
 5811.00    0.67803   0.50090    0.000
 5812.00    0.70259   0.49660    0.000
 5813.00    0.68415   0.49755    0.000
 5814.00    0.63602   0.50385    0.000
 5815.00    0.60058   0.51104    0.000
 5816.00    0.57283   0.51525    0.000
 5817.00    0.56564   0.51601    0.000
 5818.00    0.56930   0.51456    0.000
 5819.00    0.56650   0.51248    0.000
 5820.00    0.56074   0.51145    0.000
 5821.00    0.57282   0.51185    0.000
 5822.00    0.59194   0.51254    0.000
 5823.00    0.59283   0.51271    0.000
 5824.00    0.58759   0.51297    0.000
 5825.00    0.56401   0.51380    0.000
 5826.00    0.53525   0.51435    0.000
 5827.00    0.50944   0.51378    0.000
 5828.00    0.48432   0.51233    0.000
 5829.00    0.54211   0.51008    0.000
 5830.00    0.61540   0.50707    0.000
 5831.00    0.62375   0.50490    0.000
 5832.00    0.62273   0.50496    0.000
 5833.00    0.60098   0.50563    0.000
 5834.00    0.57707   0.50514    0.000
 5835.00    0.55195   0.50521    0.000
 5836.00    0.52676   0.50795    0.000
 5837.00    0.54573   0.51202    0.000
 5838.00    0.56616   0.51465    0.000
 5839.00    0.59630   0.51475    0.000
 5840.00    0.62543   0.51262    0.000
 5841.00    0.62242   0.50876    0.000
 5842.00    0.61989   0.50388    0.000
 5843.00    0.62475   0.49936    0.000
 5844.00    0.62366   0.49691    0.000
 5845.00    0.56488   0.49692    0.000
 5846.00    0.50940   0.49743    0.000
 5847.00    0.47713   0.49553    0.000
 5848.00    0.46259   0.49020    0.000
 5849.00    0.54392   0.48420    0.000
 5850.00    0.60900   0.48146    0.000
 5851.00    0.60372   0.48140    0.000
 5852.00    0.59505   0.47896    0.000
 5853.00    0.57432   0.47268    0.000
 5854.00    0.56817   0.46821    0.000
 5855.00    0.60572   0.47068    0.000
 5856.00    0.63083   0.47801    0.000
 5857.00    0.62423   0.48422    0.000
 5858.00    0.60424   0.48649    0.000
 5859.00    0.55488   0.48680    0.000
 5860.00    0.53396   0.48766    0.000
 5861.00    0.56717   0.48814    0.000
 5862.00    0.59726   0.48659    0.000
 5863.00    0.62216   0.48516    0.000
 5864.00    0.61817   0.48724    0.000
 5865.00    0.57209   0.49228    0.000
 5866.00    0.53402   0.49647    0.000
 5867.00    0.50621   0.49719    0.000
 5868.00    0.49395   0.49468    0.000
 5869.00    0.49923   0.49056    0.000
 5870.00    0.49634   0.48610    0.000
 5871.00    0.48532   0.48201    0.000
 5872.00    0.47904   0.47943    0.000
 5873.00    0.47690   0.47932    0.000
 5874.00    0.49949   0.48021    0.000
 5875.00    0.54120   0.47930    0.000
 5876.00    0.58360   0.47681    0.000
 5877.00    0.62646   0.47587    0.000
 5878.00    0.63675   0.47696    0.000
 5879.00    0.62763   0.47734    0.000
 5880.00    0.57592   0.47601    0.000
 5881.00    0.50207   0.47441    0.000
 5882.00    0.45062   0.47110    0.000
 5883.00    0.40927   0.45938    0.000
 5884.00    0.40409   0.43309    0.000
 5885.00    0.41293   0.39727    0.000
 5886.00    0.44114   0.37106    0.000
 5887.00    0.47572   0.37095    0.000
 5888.00    0.46221   0.39143    0.000
 5889.00    0.43540   0.41113    0.000
 5890.00    0.44197   0.41403    0.000
 5891.00    0.45614   0.40114    0.000
 5892.00    0.45752   0.38923    0.000
 5893.00    0.45656   0.39508    0.000
 5894.00    0.50821   0.41681    0.000
 5895.00    0.56720   0.43945    0.000
 5896.00    0.57324   0.45497    0.000
 5897.00    0.57398   0.46475    0.000
 5898.00    0.55574   0.47081    0.000
 5899.00    0.53630   0.47392    0.000
 5900.00    0.52645   0.47475    0.000
 5901.00    0.51689   0.47396    0.010
 5902.00    0.50954   0.47323    0.010
 5903.00    0.50257   0.47443    0.010
 5904.00    0.50613   0.47710    0.010
 5905.00    0.50609   0.47938    0.010
 5906.00    0.45466   0.48081    0.010
 5907.00    0.40830   0.48165    0.010
 5908.00    0.40910   0.48040    0.010
 5909.00    0.41196   0.47530    0.010
 5910.00    0.42871   0.46822    0.010
 5911.00    0.44639   0.46358    0.010
 5912.00    0.46893   0.46378    0.010
 5913.00    0.48679   0.46759    0.010
 5914.00    0.48482   0.47239    0.010
 5915.00    0.47916   0.47621    0.010
 5916.00    0.46061   0.47825    0.010
 5917.00    0.44503   0.47826    0.009
 5918.00    0.43816   0.47694    0.009
 5919.00    0.44672   0.47623    0.010
 5920.00    0.49398   0.47729    0.010
 5921.00    0.54533   0.47929    0.010
 5922.00    0.60549   0.48051    0.009
 5923.00    0.63686   0.47937    0.009
 5924.00    0.61428   0.47542    0.009
 5925.00    0.58611   0.47050    0.009
 5926.00    0.54878   0.46816    0.009
 5927.00    0.53084   0.47047    0.010
 5928.00    0.54074   0.47484    0.010
 5929.00    0.53983   0.47603    0.010
 5930.00    0.52528   0.47291    0.010
 5931.00    0.52279   0.47009    0.010
 5932.00    0.53373   0.47146    0.010
 5933.00    0.52502   0.47577    0.010
 5934.00    0.49704   0.47952    0.010
 5935.00    0.47902   0.48044    0.010
 5936.00    0.46963   0.47765    0.010
 5937.00    0.46493   0.47273    0.010
 5938.00    0.46379   0.46965    0.010
 5939.00    0.45495   0.47071    0.010
 5940.00    0.44095   0.47458    0.010
 5941.00    0.44335   0.47860    0.010
 5942.00    0.45538   0.48031    0.010
 5943.00    0.46278   0.47798    0.010
 5944.00    0.46781   0.47258    0.010
 5945.00    0.46701   0.46829    0.010
 5946.00    0.46363   0.46815    0.010
 5947.00    0.44140   0.46970    0.010
 5948.00    0.41200   0.46886    0.010
 5949.00    0.40437   0.46666    0.009
 5950.00    0.40378   0.46673    0.009
 5951.00    0.40475   0.46802    0.009
 5952.00    0.40613   0.46689    0.009
 5953.00    0.40674   0.46414    0.009
 5954.00    0.40717   0.46394    0.009
 5955.00    0.41906   0.46779    0.009
 5956.00    0.43298   0.47352    0.010
 5957.00    0.45066   0.47834    0.009
 5958.00    0.46885   0.48085    0.009
 5959.00    0.47367   0.48106    0.010
 5960.00    0.47721   0.47937    0.010
 5961.00    0.48938   0.47662    0.010
 5962.00    0.50207   0.47478    0.010
 5963.00    0.49101   0.47564    0.010
 5964.00    0.47944   0.47849    0.010
 5965.00    0.48345   0.48126    0.010
 5966.00    0.48765   0.48319    0.010
 5967.00    0.49668   0.48429    0.010
 5968.00    0.50397   0.48427    0.010
 5969.00    0.48786   0.48276    0.010
 5970.00    0.47324   0.47925    0.010
 5971.00    0.47201   0.47348    0.010
 5972.00    0.47131   0.46693    0.010
 5973.00    0.47410   0.46236    0.010
 5974.00    0.47276   0.46168    0.010
 5975.00    0.45020   0.46480    0.010
 5976.00    0.43311   0.46966    0.010
 5977.00    0.43865   0.47258    0.010
 5978.00    0.45064   0.47043    0.009
 5979.00    0.48471   0.46364    0.009
 5980.00    0.50721   0.45675    0.009
 5981.00    0.49630   0.45491    0.009
 5982.00    0.48115   0.45862    0.009
 5983.00    0.45553   0.46386    0.009
 5984.00    0.43252   0.46782    0.009
 5985.00    0.41505   0.47038    0.009
 5986.00    0.39660   0.47126    0.009
 5987.00    0.37634   0.47054    0.009
 5988.00    0.36844   0.47054    0.009
 5989.00    0.38049   0.47313    0.009
 5990.00    0.38805   0.47633    0.009
 5991.00    0.38926   0.47644    0.009
 5992.00    0.39275   0.47244    0.009
 5993.00    0.39905   0.46674    0.009
 5994.00    0.41654   0.46301    0.009
 5995.00    0.44629   0.46310    0.009
 5996.00    0.45074   0.46537    0.009
 5997.00    0.43070   0.46649    0.009
 5998.00    0.43917   0.46511    0.009
 5999.00    0.47197   0.46333    0.010
 6000.00    0.50516   0.46342    0.010
 6001.00    0.53863   0.46372    0.010
 6002.00    0.53786   0.46073    0.010
 6003.00    0.51447   0.45474    0.010
 6004.00    0.50284   0.45066    0.010
 6005.00    0.49800   0.45310    0.010
 6006.00    0.49479   0.46037    0.010
 6007.00    0.49241   0.46521    0.010
 6008.00    0.48230   0.46356    0.010
 6009.00    0.46882   0.45894    0.010
 6010.00    0.48582   0.45664    0.010
 6011.00    0.51421   0.45701    0.010
 6012.00    0.52103   0.45709    0.010
 6013.00    0.52101   0.45632    0.009
 6014.00    0.50578   0.45587    0.009
 6015.00    0.48653   0.45498    0.009
 6016.00    0.48803   0.45302    0.009
 6017.00    0.49403   0.45187    0.009
 6018.00    0.50426   0.45295    0.009
 6019.00    0.51520   0.45531    0.009
 6020.00    0.51967   0.45804    0.009
 6021.00    0.52330   0.46112    0.009
 6022.00    0.50472   0.46386    0.009
 6023.00    0.48410   0.46566    0.009
 6024.00    0.45357   0.46758    0.009
 6025.00    0.42249   0.47000    0.009
 6026.00    0.42702   0.47152    0.009
 6027.00    0.43241   0.47196    0.009
 6028.00    0.44541   0.47268    0.009
 6029.00    0.45850   0.47399    0.009
 6030.00    0.47342   0.47493    0.009
 6031.00    0.48827   0.47515    0.010
 6032.00    0.50216   0.47515    0.010
 6033.00    0.51295   0.47500    0.010
 6034.00    0.49700   0.47415    0.010
 6035.00    0.48029   0.47236    0.010
 6036.00    0.45877   0.47027    0.010
 6037.00    0.44180   0.46899    0.010
 6038.00    0.44761   0.46933    0.010
 6039.00    0.44864   0.47143    0.010
 6040.00    0.43037   0.47432    0.009
 6041.00    0.41108   0.47644    0.009
 6042.00    0.38840   0.47727    0.009
 6043.00    0.37073   0.47726    0.009
 6044.00    0.36730   0.47679    0.009
 6045.00    0.36763   0.47639    0.009
 6046.00    0.37709   0.47650    0.009
 6047.00    0.38981   0.47621    0.009
 6048.00    0.40936   0.47412    0.009
 6049.00    0.42567   0.47052    0.009
 6050.00    0.43610   0.46691    0.009
 6051.00    0.44202   0.46401    0.009
 6052.00    0.44080   0.46197    0.009
 6053.00    0.44419   0.46161    0.009
 6054.00    0.45402   0.46359    0.009
 6055.00    0.45889   0.46689    0.009
 6056.00    0.45768   0.46940    0.009
 6057.00    0.44897   0.46943    0.009
 6058.00    0.43216   0.46658    0.009
 6059.00    0.42351   0.46148    0.009
 6060.00    0.42264   0.45548    0.009
 6061.00    0.41292   0.45150    0.010
 6062.00    0.39576   0.45341    0.010
 6063.00    0.39254   0.46138    0.010
 6064.00    0.39965   0.47020    0.010
 6065.00    0.39897   0.47527    0.010
 6066.00    0.39323   0.47680    0.010
 6067.00    0.38928   0.47717    0.009
 6068.00    0.38635   0.47762    0.009
 6069.00    0.38422   0.47787    0.009
 6070.00    0.38248   0.47733    0.009
 6071.00    0.38815   0.47554    0.009
 6072.00    0.39699   0.47204    0.009
 6073.00    0.40673   0.46685    0.009
 6074.00    0.41679   0.46132    0.009
 6075.00    0.42397   0.45783    0.009
 6076.00    0.43024   0.45672    0.009
 6077.00    0.44310   0.45559    0.009
 6078.00    0.45768   0.45369    0.009
 6079.00    0.46199   0.45312    0.009
 6080.00    0.46413   0.45428    0.009
 6081.00    0.43778   0.45534    0.009
 6082.00    0.40666   0.45619    0.009
 6083.00    0.37957   0.45768    0.009
 6084.00    0.35298   0.45850    0.009
 6085.00    0.36725   0.45650    0.009
 6086.00    0.38509   0.45251    0.009
 6087.00    0.41373   0.44976    0.009
 6088.00    0.44294   0.44980    0.009
 6089.00    0.43633   0.45205    0.009
 6090.00    0.42899   0.45579    0.009
 6091.00    0.41632   0.45963    0.009
 6092.00    0.40418   0.46130    0.009
 6093.00    0.40350   0.46083    0.009
 6094.00    0.40056   0.46085    0.009
 6095.00    0.37028   0.46188    0.009
 6096.00    0.34568   0.46021    0.009
 6097.00    0.36824   0.45172    0.009
 6098.00    0.38665   0.43877    0.009
 6099.00    0.37928   0.43129    0.009
 6100.00    0.36690   0.43592    0.009
 6101.00    0.33009   0.44707    0.009
 6102.00    0.30437   0.45495    0.009
 6103.00    0.32252   0.45704    0.009
 6104.00    0.34543   0.45715    0.009
 6105.00    0.38400   0.45830    0.009
 6106.00    0.41514   0.45933    0.009
 6107.00    0.42559   0.45867    0.009
 6108.00    0.43562   0.45830    0.009
 6109.00    0.44464   0.46033    0.009
 6110.00    0.45906   0.46289    0.009
 6111.00    0.48458   0.46276    0.009
 6112.00    0.49625   0.46013    0.009
 6113.00    0.48315   0.45786    0.009
 6114.00    0.46747   0.45640    0.009
 6115.00    0.44777   0.45260    0.009
 6116.00    0.43391   0.44474    0.009
 6117.00    0.42808   0.43551    0.009
 6118.00    0.41558   0.43056    0.009
 6119.00    0.39500   0.43407    0.009
 6120.00    0.38850   0.44308    0.009
 6121.00    0.39703   0.44971    0.009
 6122.00    0.41101   0.45050    0.009
 6123.00    0.43012   0.44806    0.009
 6124.00    0.45500   0.44618    0.009
 6125.00    0.48465   0.44724    0.010
 6126.00    0.48784   0.45127    0.010
 6127.00    0.47170   0.45595    0.009
 6128.00    0.45435   0.45862    0.009
 6129.00    0.43622   0.45742    0.009
 6130.00    0.43188   0.45031    0.009
 6131.00    0.43526   0.43631    0.009
 6132.00    0.44065   0.41938    0.009
 6133.00    0.44701   0.40928    0.009
 6134.00    0.44597   0.41393    0.009
 6135.00    0.44182   0.42908    0.009
 6136.00    0.42751   0.44138    0.009
 6137.00    0.40953   0.44402    0.009
 6138.00    0.41395   0.44295    0.009
 6139.00    0.42521   0.44604    0.009
 6140.00    0.43381   0.45259    0.009
 6141.00    0.44174   0.45710    0.009
 6142.00    0.40549   0.45713    0.009
 6143.00    0.36012   0.45368    0.009
 6144.00    0.36078   0.44846    0.009
 6145.00    0.36893   0.44354    0.009
 6146.00    0.39135   0.44118    0.009
 6147.00    0.41551   0.44233    0.009
 6148.00    0.42407   0.44532    0.009
 6149.00    0.43132   0.44675    0.009
 6150.00    0.40784   0.44480    0.009
 6151.00    0.38289   0.44158    0.009
 6152.00    0.38411   0.44005    0.009
 6153.00    0.38666   0.43983    0.009
 6154.00    0.44381   0.43829    0.009
 6155.00    0.49812   0.43253    0.009
 6156.00    0.49653   0.42021    0.009
 6157.00    0.49463   0.40344    0.009
 6158.00    0.48911   0.39080    0.010
 6159.00    0.47718   0.38996    0.010
 6160.00    0.41395   0.39952    0.010
 6161.00    0.35148   0.41169    0.009
 6162.00    0.29360   0.42042    0.009
 6163.00    0.25256   0.42352    0.009
 6164.00    0.29154   0.42005    0.009
 6165.00    0.32786   0.41254    0.009
 6166.00    0.35386   0.40896    0.009
 6167.00    0.37394   0.41407    0.009
 6168.00    0.37494   0.42285    0.009
 6169.00    0.37881   0.42836    0.009
 6170.00    0.39050   0.43001    0.009
 6171.00    0.39830   0.43015    0.009
 6172.00    0.39698   0.42993    0.009
 6173.00    0.39967   0.43048    0.009
 6174.00    0.41047   0.43259    0.009
 6175.00    0.41518   0.43479    0.009
 6176.00    0.40916   0.43594    0.009
 6177.00    0.41129   0.43720    0.009
 6178.00    0.42599   0.43897    0.009
 6179.00    0.44426   0.43984    0.009
 6180.00    0.46736   0.43889    0.009
 6181.00    0.47202   0.43586    0.009
 6182.00    0.45468   0.43097    0.009
 6183.00    0.44779   0.42593    0.009
 6184.00    0.45190   0.42229    0.009
 6185.00    0.46864   0.41887    0.009
 6186.00    0.49709   0.41326    0.009
 6187.00    0.50533   0.40723    0.009
 6188.00    0.49704   0.40714    0.009
 6189.00    0.48216   0.41496    0.009
 6190.00    0.46254   0.42490    0.009
 6191.00    0.46746   0.43178    0.009
 6192.00    0.48789   0.43528    0.009
 6193.00    0.57833   0.43569    0.009
 6194.00    0.70744   0.43210    0.009
 6195.00    0.94653   0.42584    0.009
 6196.00    1.23841   0.42194   -2.000
 6197.00    1.36195   0.42409   -2.000
 6198.00    1.41569   0.43008   -2.000
 6199.00    1.18959   0.43497   -2.000
 6200.00    0.86430   0.43673   -2.000
 6201.00    0.50067   0.43676   -2.000
 6202.00    0.12555   0.43676   -2.000
 6203.00    0.03982   0.43693   -2.000
 6204.00    0.02596   0.43665   -2.000
 6205.00    0.11863   0.43536   -2.000
 6206.00    0.23275   0.43274   -2.000
 6207.00    0.29280   0.42845   -2.000
 6208.00    0.34431   0.42192    0.010
 6209.00    0.33770   0.41328    0.009
 6210.00    0.32428   0.40540    0.009
 6211.00    0.33873   0.40206    0.009
 6212.00    0.35539   0.40405    0.009
 6213.00    0.37578   0.40846    0.009
 6214.00    0.39634   0.41075    0.009
 6215.00    0.42653   0.40923    0.009
 6216.00    0.45649   0.40714    0.009
 6217.00    0.47085   0.40813    0.009
 6218.00    0.48345   0.41166    0.009
 6219.00    0.46402   0.41467    0.009
 6220.00    0.44587   0.41582    0.009
 6221.00    0.44188   0.41649    0.009
 6222.00    0.43562   0.41747    0.009
 6223.00    0.41189   0.41746    0.009
 6224.00    0.39240   0.41426    0.009
 6225.00    0.39768   0.40661    0.009
 6226.00    0.40602   0.39711    0.009
 6227.00    0.42858   0.39198    0.009
 6228.00    0.44838   0.39485    0.009
 6229.00    0.45771   0.40365    0.009
 6230.00    0.46471   0.41418    0.009
 6231.00    0.46434   0.42207    0.009
 6232.00    0.46876   0.42416    0.009
 6233.00    0.48606   0.42056    0.009
 6234.00    0.48771   0.41391    0.009
 6235.00    0.45336   0.40720    0.009
 6236.00    0.41186   0.40286    0.009
 6237.00    0.35612   0.40137    0.009
 6238.00    0.31351   0.40008    0.009
 6239.00    0.29372   0.39737    0.009
 6240.00    0.29165   0.39555    0.009
 6241.00    0.31652   0.39638    0.009
 6242.00    0.34768   0.39971    0.009
 6243.00    0.38722   0.40556    0.009
 6244.00    0.41444   0.41234    0.009
 6245.00    0.42717   0.41648    0.009
 6246.00    0.41813   0.41564    0.009
 6247.00    0.38651   0.40986    0.009
 6248.00    0.37345   0.40177    0.009
 6249.00    0.37736   0.39568    0.009
 6250.00    0.39407   0.39345    0.009
 6251.00    0.42111   0.39277    0.009
 6252.00    0.42918   0.39050    0.009
 6253.00    0.42379   0.38666    0.009
 6254.00    0.41682   0.38473    0.009
 6255.00    0.40887   0.38807    0.009
 6256.00    0.43727   0.39594    0.009
 6257.00    0.48544   0.40460    0.009
 6258.00    0.57121   0.41173    0.009
 6259.00    0.67474   0.41588    0.010
 6260.00    0.68066   0.41546    0.010
 6261.00    0.64681   0.41226    0.011
 6262.00    0.54386   0.41084    0.011
 6263.00    0.41688   0.41215    0.012
 6264.00    0.33361   0.41313    0.011
 6265.00    0.26316   0.41247    0.011
 6266.00    0.26869   0.41201    0.010
 6267.00    0.29268   0.41331    0.010
 6268.00    0.31680   0.41571    0.009
 6269.00    0.34094   0.41751    0.009
 6270.00    0.37116   0.41796    0.009
 6271.00    0.40231   0.41779    0.009
 6272.00    0.41765   0.41760    0.009
 6273.00    0.43120   0.41693    0.009
 6274.00    0.41854   0.41499    0.009
 6275.00    0.40391   0.41142    0.009
 6276.00    0.40221   0.40754    0.009
 6277.00    0.40102   0.40624    0.009
 6278.00    0.41018   0.40865    0.009
 6279.00    0.41859   0.41294    0.009
 6280.00    0.39353   0.41647    0.000
 6281.00    0.36901   0.41835    0.000
 6282.00    0.35357   0.42007    0.000
 6283.00    0.34035   0.42284    0.000
 6284.00    0.35063   0.42550    0.000
 6285.00    0.35853   0.42585    0.000
 6286.00    0.34867   0.42307    0.000
 6287.00    0.34105   0.41881    0.000
 6288.00    0.34622   0.41555    0.000
 6289.00    0.35171   0.41442    0.000
 6290.00    0.35862   0.41442    0.000
 6291.00    0.36518   0.41295    0.000
 6292.00    0.37046   0.40890    0.000
 6293.00    0.37470   0.40494    0.000
 6294.00    0.37573   0.40406    0.000
 6295.00    0.37819   0.40517    0.000
 6296.00    0.38445   0.40471    0.000
 6297.00    0.37861   0.40205    0.000
 6298.00    0.34537   0.40067    0.000
 6299.00    0.31835   0.40303    0.000
 6300.00    0.30352   0.40727    0.000
 6301.00    0.29436   0.41096    0.000
 6302.00    0.29492   0.41464    0.000
 6303.00    0.30572   0.41910    0.000
 6304.00    0.33187   0.42229    0.000
 6305.00    0.35532   0.42172    0.000
 6306.00    0.37520   0.41783    0.000
 6307.00    0.38469   0.41354    0.000
 6308.00    0.38213   0.41100    0.000
 6309.00    0.38026   0.40938    0.000
 6310.00    0.37910   0.40665    0.000
 6311.00    0.37991   0.40328    0.000
 6312.00    0.38249   0.40081    0.000
 6313.00    0.37116   0.39855    0.000
 6314.00    0.34876   0.39664    0.000
 6315.00    0.32130   0.39780    0.000
 6316.00    0.29029   0.40230    0.000
 6317.00    0.28675   0.40684    0.000
 6318.00    0.30004   0.40980    0.000
 6319.00    0.32524   0.41262    0.000
 6320.00    0.35683   0.41595    0.000
 6321.00    0.36850   0.41839    0.009
 6322.00    0.37093   0.41899    0.009
 6323.00    0.33705   0.41862    0.009
 6324.00    0.28862   0.41851    0.009
 6325.00    0.23877   0.41837    0.009
 6326.00    0.18843   0.41782    0.009
 6327.00    0.19978   0.41802    0.009
 6328.00    0.22886   0.41920    0.009
 6329.00    0.28153   0.41853    0.009
 6330.00    0.33979   0.41308    0.009
 6331.00    0.35277   0.40460    0.009
 6332.00    0.35708   0.39899    0.009
 6333.00    0.35683   0.39960    0.008
 6334.00    0.35591   0.40414    0.008
 6335.00    0.38016   0.40917    0.008
 6336.00    0.40714   0.41323    0.009
 6337.00    0.40411   0.41478    0.009
 6338.00    0.39895   0.41218    0.008
 6339.00    0.37557   0.40678    0.008
 6340.00    0.35152   0.40266    0.008
 6341.00    0.33311   0.40231    0.008
 6342.00    0.31541   0.40466    0.009
 6343.00    0.32232   0.40800    0.009
 6344.00    0.32867   0.41185    0.009
 6345.00    0.32592   0.41552    0.009
 6346.00    0.32373   0.41796    0.009
 6347.00    0.32708   0.41880    0.009
 6348.00    0.33119   0.41767    0.009
 6349.00    0.34085   0.41400    0.009
 6350.00    0.34935   0.40886    0.009
 6351.00    0.35151   0.40507    0.009
 6352.00    0.34902   0.40343    0.009
 6353.00    0.32602   0.40117    0.009
 6354.00    0.30532   0.39657    0.009
 6355.00    0.29305   0.39169    0.009
 6356.00    0.28429   0.38843    0.009
 6357.00    0.28626   0.38630    0.009
 6358.00    0.30020   0.38530    0.009
 6359.00    0.34519   0.38682    0.009
 6360.00    0.38658   0.39121    0.009
 6361.00    0.41997   0.39695    0.009
 6362.00    0.43447   0.40271    0.009
 6363.00    0.41250   0.40792    0.009
 6364.00    0.39426   0.41147    0.009
 6365.00    0.38233   0.41214    0.009
 6366.00    0.37085   0.41113    0.009
 6367.00    0.36005   0.41157    0.009
 6368.00    0.34078   0.41463    0.009
 6369.00    0.31052   0.41810    0.009
 6370.00    0.29432   0.41965    0.009
 6371.00    0.29420   0.41941    0.009
 6372.00    0.29493   0.41839    0.009
 6373.00    0.29651   0.41636    0.009
 6374.00    0.30204   0.41325    0.009
 6375.00    0.31107   0.41040    0.009
 6376.00    0.32121   0.40918    0.009
 6377.00    0.33224   0.40978    0.009
 6378.00    0.34417   0.41114    0.009
 6379.00    0.35673   0.41182    0.009
 6380.00    0.35962   0.41172    0.009
 6381.00    0.35668   0.41229    0.009
 6382.00    0.34554   0.41407    0.008
 6383.00    0.33006   0.41584    0.008
 6384.00    0.32565   0.41663    0.008
 6385.00    0.32629   0.41659    0.009
 6386.00    0.32196   0.41527    0.009
 6387.00    0.31567   0.41093    0.008
 6388.00    0.31066   0.40340    0.008
 6389.00    0.30609   0.39697    0.008
 6390.00    0.31170   0.39706    0.008
 6391.00    0.32019   0.40362    0.008
 6392.00    0.31264   0.41100    0.008
 6393.00    0.30137   0.41350    0.008
 6394.00    0.27567   0.40879    0.009
 6395.00    0.24727   0.39968    0.009
 6396.00    0.27111   0.39398    0.009
 6397.00    0.30247   0.39732    0.009
 6398.00    0.32045   0.40654    0.009
 6399.00    0.33705   0.41445    0.009
 6400.00    0.29375   0.41744    0.009
 6401.00    0.24643   0.41591    0.009
 6402.00    0.24607   0.41134    0.009
 6403.00    0.24725   0.40620    0.009
 6404.00    0.25488   0.40376    0.009
 6405.00    0.26224   0.40441    0.009
 6406.00    0.26129   0.40477    0.018
 6407.00    0.26108   0.40318   -1.000
 6408.00    0.27205   0.40203   -1.000
 6409.00    0.28403   0.40310   -1.000
 6410.00    0.30564   0.40548   -1.000
 6411.00    0.32578   0.40797   -1.000
 6412.00    0.33560   0.40970   -1.000
 6413.00    0.34360   0.40943   -1.000
 6414.00    0.34180   0.40612   -1.000
 6415.00    0.33762   0.40032    0.088
 6416.00    0.32323   0.39521    0.014
 6417.00    0.30834   0.39508    0.008
 6418.00    0.29171   0.40093    0.009
 6419.00    0.27691   0.40863    0.009
 6420.00    0.26760   0.41355    0.009
 6421.00    0.26170   0.41541    0.008
 6422.00    0.26450   0.41651    0.008
 6423.00    0.26896   0.41713    0.008
 6424.00    0.27706   0.41493    0.009
 6425.00    0.28973   0.40830    0.009
 6426.00    0.31108   0.39981    0.009
 6427.00    0.32154   0.39508    0.009
 6428.00    0.31393   0.39710    0.009
 6429.00    0.30678   0.40337    0.009
 6430.00    0.30026   0.40939    0.009
 6431.00    0.29097   0.41245    0.009
 6432.00    0.27814   0.41153    0.009
 6433.00    0.27388   0.40642    0.009
 6434.00    0.27929   0.39971    0.009
 6435.00    0.29362   0.39708    0.009
 6436.00    0.31680   0.40162    0.009
 6437.00    0.32430   0.40980    0.009
 6438.00    0.31804   0.41606    0.009
 6439.00    0.31158   0.41868    0.009
 6440.00    0.30496   0.41944    0.009
 6441.00    0.29889   0.41991    0.009
 6442.00    0.29319   0.41911    0.009
 6443.00    0.26741   0.41394    0.009
 6444.00    0.22969   0.40270    0.008
 6445.00    0.22766   0.38959    0.008
 6446.00    0.24414   0.38302    0.008
 6447.00    0.27231   0.38700    0.009
 6448.00    0.30574   0.39673    0.009
 6449.00    0.30945   0.40422    0.009
 6450.00    0.30166   0.40550    0.009
 6451.00    0.31289   0.40274    0.009
 6452.00    0.33036   0.40148    0.009
 6453.00    0.34810   0.40496    0.009
 6454.00    0.36590   0.41109    0.009
 6455.00    0.36933   0.41499    0.009
 6456.00    0.36949   0.41289    0.009
 6457.00    0.34037   0.40460    0.008
 6458.00    0.30593   0.39513    0.008
 6459.00    0.28291   0.39153    0.009
 6460.00    0.26147   0.39574    0.009
 6461.00    0.25510   0.40323    0.009
 6462.00    0.25024   0.40915    0.008
 6463.00    0.27141   0.41182    0.008
 6464.00    0.29422   0.41138    0.008
 6465.00    0.31912   0.40866    0.008
 6466.00    0.34403   0.40527    0.008
 6467.00    0.35546   0.40330    0.008
 6468.00    0.36675   0.40387    0.008
 6469.00    0.37402   0.40559    0.009
 6470.00    0.38017   0.40610    0.009
 6471.00    0.37053   0.40561    0.009
 6472.00    0.36507   0.40612    0.009
 6473.00    0.39823   0.40773    0.009
 6474.00    0.42711   0.40858    0.009
 6475.00    0.42698   0.40720    0.009
 6476.00    0.42138   0.40293    0.009
 6477.00    0.38714   0.39652    0.009
 6478.00    0.35259   0.39125    0.008
 6479.00    0.31671   0.39060    0.008
 6480.00    0.28927   0.39444    0.008
 6481.00    0.29122   0.39954    0.009
 6482.00    0.29174   0.40325    0.009
 6483.00    0.28805   0.40498    0.009
 6484.00    0.28696   0.40472    0.009
 6485.00    0.29237   0.40235    0.008
 6486.00    0.30207   0.39817    0.008
 6487.00    0.32102   0.39238    0.009
 6488.00    0.33835   0.38367    0.009
 6489.00    0.35263   0.37105    0.009
 6490.00    0.35643   0.35773    0.009
 6491.00    0.34309   0.34981    0.009
 6492.00    0.33381   0.35017    0.009
 6493.00    0.33034   0.35624    0.008
 6494.00    0.32187   0.36382    0.008
 6495.00    0.30709   0.37112    0.008
 6496.00    0.28801   0.37845    0.008
 6497.00    0.26415   0.38552    0.008
 6498.00    0.26770   0.39122    0.008
 6499.00    0.29809   0.39519    0.009
 6500.00    0.33589   0.39803    0.009
 6501.00    0.38009   0.40003    0.009
 6502.00    0.38145   0.40073    0.008
 6503.00    0.35020   0.39976    0.008
 6504.00    0.32364   0.39815    0.008
 6505.00    0.30022   0.39773    0.008
 6506.00    0.30568   0.39896    0.008
 6507.00    0.32807   0.40054    0.008
 6508.00    0.34632   0.40116    0.008
 6509.00    0.36246   0.40039    0.009
 6510.00    0.37044   0.39813    0.009
 6511.00    0.37481   0.39474    0.009
 6512.00    0.36205   0.39127    0.009
 6513.00    0.34278   0.38872    0.009
 6514.00    0.34378   0.38798    0.009
 6515.00    0.35132   0.38988    0.008
 6516.00    0.33965   0.39390    0.009
 6517.00    0.32279   0.39782    0.009
 6518.00    0.31311   0.39999    0.008
 6519.00    0.30502   0.40063    0.008
 6520.00    0.32852   0.40029    0.008
 6521.00    0.35759   0.39854    0.008
 6522.00    0.35571   0.39552    0.008
 6523.00    0.34967   0.39323    0.008
 6524.00    0.33023   0.39351    0.008
 6525.00    0.30951   0.39543    0.008
 6526.00    0.31069   0.39627    0.008
 6527.00    0.31316   0.39469    0.008
 6528.00    0.31118   0.39213    0.000
 6529.00    0.30912   0.39127    0.000
 6530.00    0.31219   0.39319    0.000
 6531.00    0.31567   0.39616    0.000
 6532.00    0.32963   0.39774    0.000
 6533.00    0.34380   0.39782    0.000
 6534.00    0.36094   0.39825    0.000
 6535.00    0.37544   0.39962    0.000
 6536.00    0.36640   0.40019    0.000
 6537.00    0.35536   0.39846    0.000
 6538.00    0.33120   0.39489    0.000
 6539.00    0.30740   0.39061    0.000
 6540.00    0.28549   0.38580    0.000
 6541.00    0.26884   0.38065    0.000
 6542.00    0.27391   0.37705    0.000
 6543.00    0.28698   0.37712    0.000
 6544.00    0.32736   0.37993    0.000
 6545.00    0.36635   0.38214    0.000
 6546.00    0.40132   0.38159    0.000
 6547.00    0.41973   0.37873    0.000
 6548.00    0.39741   0.37478    0.000
 6549.00    0.37213   0.37002    0.000
 6550.00    0.34057   0.36465    0.000
 6551.00    0.31487   0.36008    0.000
 6552.00    0.29996   0.35776    0.000
 6553.00    0.30000   0.35698    0.000
 6554.00    0.32409   0.35487    0.000
 6555.00    0.34944   0.34771    0.000
 6556.00    0.37655   0.33180    0.000
 6557.00    0.41039   0.30714    0.000
 6558.00    0.45257   0.28354    0.000
 6559.00    0.53840   0.27690    0.000
 6560.00    0.67202   0.29290    0.000
 6561.00    0.75743   0.32016    0.000
 6562.00    0.79627   0.34346    0.000
 6563.00    0.75340   0.35660    0.000
 6564.00    0.64091   0.36140    0.000
 6565.00    0.53204   0.36236    0.000
 6566.00    0.42587   0.36295    0.000
 6567.00    0.37380   0.36345    0.000
 6568.00    0.35739   0.36255    0.000
 6569.00    0.35253   0.36064    0.000
 6570.00    0.35434   0.36027    0.000
 6571.00    0.33755   0.36362    0.000
 6572.00    0.31141   0.37017    0.000
 6573.00    0.30475   0.37684    0.000
 6574.00    0.30656   0.38058    0.000
 6575.00    0.30135   0.38056    0.000
 6576.00    0.29352   0.37840    0.000
 6577.00    0.29457   0.37694    0.000
 6578.00    0.29842   0.37784    0.000
 6579.00    0.35117   0.38024    0.000
 6580.00    0.41685   0.38208    0.000
 6581.00    0.46354   0.38265    0.000
 6582.00    0.50612   0.38311    0.000
 6583.00    0.51354   0.38475    0.000
 6584.00    0.51493   0.38707    0.000
 6585.00    0.50013   0.38801    0.000
 6586.00    0.48322   0.38537    0.000
 6587.00    0.43244   0.37821    0.000
 6588.00    0.37857   0.36888    0.000
 6589.00    0.36556   0.36302    0.000
 6590.00    0.35479   0.36444    0.000
 6591.00    0.34060   0.37062    0.000
 6592.00    0.32614   0.37590    0.000
 6593.00    0.29349   0.37774    0.000
 6594.00    0.26195   0.37812    0.000
 6595.00    0.25606   0.37993    0.000
 6596.00    0.25228   0.38359    0.000
 6597.00    0.27523   0.38693    0.000
 6598.00    0.30180   0.38781    0.000
 6599.00    0.35932   0.38594    0.000
 6600.00    0.41045   0.38254    0.000
 6601.00    0.42090   0.37899    0.000
 6602.00    0.42202   0.37582    0.000
 6603.00    0.37666   0.37274    0.000
 6604.00    0.33645   0.37030    0.000
 6605.00    0.31705   0.37056    0.000
 6606.00    0.29696   0.37459    0.000
 6607.00    0.27453   0.37997    0.000
 6608.00    0.25622   0.38317    0.000
 6609.00    0.24952   0.38379    0.009
 6610.00    0.26001   0.38424    0.009
 6611.00    0.31202   0.38561    0.009
 6612.00    0.35201   0.38669    0.009
 6613.00    0.36692   0.38667    0.008
 6614.00    0.36378   0.38653    0.008
 6615.00    0.32788   0.38713    0.008
 6616.00    0.30324   0.38786    0.009
 6617.00    0.29644   0.38739    0.008
 6618.00    0.29263   0.38474    0.008
 6619.00    0.29298   0.38020    0.009
 6620.00    0.28786   0.37586    0.008
 6621.00    0.27606   0.37424    0.008
 6622.00    0.25685   0.37560    0.008
 6623.00    0.22964   0.37773    0.008
 6624.00    0.22929   0.37865    0.009
 6625.00    0.25455   0.37803    0.009
 6626.00    0.28830   0.37620    0.009
 6627.00    0.32920   0.37314    0.009
 6628.00    0.34082   0.36905    0.009
 6629.00    0.33079   0.36563    0.009
 6630.00    0.31612   0.36541    0.009
 6631.00    0.29844   0.36896    0.008
 6632.00    0.29985   0.37387    0.008
 6633.00    0.31212   0.37713    0.009
 6634.00    0.32442   0.37774    0.009
 6635.00    0.33672   0.37701    0.009
 6636.00    0.33251   0.37656    0.009
 6637.00    0.32125   0.37608    0.009
 6638.00    0.30366   0.37408    0.008
 6639.00    0.28375   0.37133    0.008
 6640.00    0.28726   0.37056    0.008
 6641.00    0.29805   0.37235    0.008
 6642.00    0.32511   0.37447    0.008
 6643.00    0.35638   0.37548    0.009
 6644.00    0.36319   0.37595    0.009
 6645.00    0.36485   0.37638    0.008
 6646.00    0.35454   0.37625    0.008
 6647.00    0.34224   0.37532    0.009
 6648.00    0.34079   0.37430    0.009
 6649.00    0.34069   0.37393    0.009
 6650.00    0.32273   0.37417    0.009
 6651.00    0.30320   0.37447    0.009
 6652.00    0.28777   0.37442    0.009
 6653.00    0.27255   0.37413    0.009
 6654.00    0.28718   0.37363    0.009
 6655.00    0.30190   0.37254    0.009
 6656.00    0.28522   0.37043    0.009
 6657.00    0.26874   0.36716    0.009
 6658.00    0.25659   0.36325    0.009
 6659.00    0.24747   0.36037    0.008
 6660.00    0.27481   0.36014    0.008
 6661.00    0.30163   0.36188    0.009
 6662.00    0.32412   0.36368    0.008
 6663.00    0.34324   0.36510    0.008
 6664.00    0.34150   0.36715    0.008
 6665.00    0.34039   0.37015    0.008
 6666.00    0.34237   0.37309    0.009
 6667.00    0.34507   0.37485    0.009
 6668.00    0.35065   0.37531    0.009
 6669.00    0.34487   0.37507    0.009
 6670.00    0.30183   0.37400    0.009
 6671.00    0.26672   0.37060    0.009
 6672.00    0.25364   0.36361    0.009
 6673.00    0.25451   0.35523    0.009
 6674.00    0.28853   0.35084    0.009
 6675.00    0.31330   0.35318    0.009
 6676.00    0.31905   0.35914    0.009
 6677.00    0.32443   0.36414    0.009
 6678.00    0.32912   0.36700    0.009
 6679.00    0.32602   0.36875    0.009
 6680.00    0.31075   0.36996    0.009
 6681.00    0.28701   0.37042    0.009
 6682.00    0.25165   0.37011    0.009
 6683.00    0.24519   0.36947    0.009
 6684.00    0.27362   0.36919    0.009
 6685.00    0.28707   0.36958    0.009
 6686.00    0.28454   0.37023    0.009
 6687.00    0.27676   0.37054    0.009
 6688.00    0.26406   0.37028    0.009
 6689.00    0.26422   0.36915    0.009
 6690.00    0.27504   0.36662    0.009
 6691.00    0.31210   0.36286    0.009
 6692.00    0.36828   0.35961    0.009
 6693.00    0.38845   0.35879    0.009
 6694.00    0.38557   0.36077    0.009
 6695.00    0.35824   0.36423    0.009
 6696.00    0.31723   0.36716    0.000
 6697.00    0.28892   0.36794    0.000
 6698.00    0.26679   0.36629    0.000
 6699.00    0.27360   0.36353    0.000
 6700.00    0.29259   0.36163    0.000
 6701.00    0.31471   0.36158    0.000
 6702.00    0.33797   0.36271    0.000
 6703.00    0.33370   0.36381    0.000
 6704.00    0.32106   0.36423    0.000
 6705.00    0.30957   0.36382    0.000
 6706.00    0.29838   0.36283    0.000
 6707.00    0.30864   0.36164    0.000
 6708.00    0.32332   0.36010    0.000
 6709.00    0.36348   0.35777    0.000
 6710.00    0.40777   0.35445    0.000
 6711.00    0.40869   0.35040    0.000
 6712.00    0.40436   0.34671    0.000
 6713.00    0.37750   0.34551    0.000
 6714.00    0.34878   0.34812    0.000
 6715.00    0.34455   0.35296    0.000
 6716.00    0.34149   0.35692    0.000
 6717.00    0.41835   0.35884    0.000
 6718.00    0.49438   0.35994    0.000
 6719.00    0.46043   0.36096    0.000
 6720.00    0.42615   0.36106    0.000
 6721.00    0.38559   0.35985    0.000
 6722.00    0.34879   0.35866    0.000
 6723.00    0.35514   0.35888    0.000
 6724.00    0.36448   0.36034    0.000
 6725.00    0.39764   0.36199    0.000
 6726.00    0.41793   0.36305    0.000
 6727.00    0.36103   0.36308    0.000
 6728.00    0.31847   0.36216    0.000
 6729.00    0.34380   0.36110    0.000
 6730.00    0.36356   0.36075    0.000
 6731.00    0.36179   0.36093    0.000
 6732.00    0.36635   0.36041    0.000
 6733.00    0.39128   0.35846    0.000
 6734.00    0.39542   0.35607    0.000
 6735.00    0.34287   0.35494    0.000
 6736.00    0.28403   0.35528    0.000
 6737.00    0.21051   0.35567    0.000
 6738.00    0.17077   0.35519    0.000
 6739.00    0.19926   0.35466    0.000
 6740.00    0.24049   0.35489    0.000
 6741.00    0.30411   0.35523    0.000
 6742.00    0.34911   0.35470    0.000
 6743.00    0.36543   0.35331    0.000
 6744.00    0.36864   0.35172    0.000
 6745.00    0.35413   0.35058    0.000
 6746.00    0.34702   0.35030    0.000
 6747.00    0.34871   0.35058    0.000
 6748.00    0.34580   0.35088    0.000
 6749.00    0.33808   0.35147    0.000
 6750.00    0.32601   0.35299    0.000
 6751.00    0.30991   0.35529    0.000
 6752.00    0.34332   0.35789    0.000
 6753.00    0.41716   0.36039    0.010
 6754.00    0.46736   0.36231    0.010
 6755.00    0.50058   0.36327    0.010
 6756.00    0.46222   0.36319    0.010
 6757.00    0.37873   0.36244    0.010
 6758.00    0.32690   0.36169    0.011
 6759.00    0.29252   0.36120    0.011
 6760.00    0.29504   0.36024    0.011
 6761.00    0.31525   0.35791    0.011
 6762.00    0.35383   0.35455    0.011
 6763.00    0.40002   0.35193    0.011
 6764.00    0.41152   0.35132    0.011
 6765.00    0.41076   0.35199    0.011
 6766.00    0.41710   0.35249    0.011
 6767.00    0.42556   0.35297    0.011
 6768.00    0.43054   0.35464    0.010
 6769.00    0.43466   0.35759    0.010
 6770.00    0.38783   0.36064    0.010
 6771.00    0.33078   0.36269    0.010
 6772.00    0.33252   0.36354    0.010
 6773.00    0.34351   0.36373    0.010
 6774.00    0.34196   0.36386    0.010
 6775.00    0.33896   0.36366    0.010
 6776.00    0.32979   0.36211    0.010
 6777.00    0.32014   0.35847    0.010
 6778.00    0.33808   0.35325    0.010
 6779.00    0.35722   0.34819    0.010
 6780.00    0.33185   0.34524    0.010
 6781.00    0.30566   0.34523    0.010
 6782.00    0.26242   0.34763    0.010
 6783.00    0.22231   0.35100    0.010
 6784.00    0.23900   0.35372    0.010
 6785.00    0.25679   0.35500    0.010
 6786.00    0.28669   0.35529    0.010
 6787.00    0.31914   0.35496    0.010
 6788.00    0.37116   0.35377    0.010
 6789.00    0.41010   0.35195    0.010
 6790.00    0.37275   0.35061    0.010
 6791.00    0.34506   0.35048    0.010
 6792.00    0.36203   0.35137    0.010
 6793.00    0.37398   0.35269    0.010
 6794.00    0.36695   0.35397    0.010
 6795.00    0.35540   0.35507    0.010
 6796.00    0.32953   0.35599    0.010
 6797.00    0.32497   0.35645    0.010
 6798.00    0.37742   0.35610    0.010
 6799.00    0.40578   0.35510    0.010
 6800.00    0.37877   0.35420    0.010
 6801.00    0.36910   0.35370    0.010
 6802.00    0.39392   0.35336    0.010
 6803.00    0.38534   0.35309    0.010
 6804.00    0.31891   0.35287    0.010
 6805.00    0.27512   0.35257    0.010
 6806.00    0.26567   0.35251    0.010
 6807.00    0.27575   0.35289    0.010
 6808.00    0.31184   0.35302    0.010
 6809.00    0.33675   0.35215    0.010
 6810.00    0.34853   0.35094    0.010
 6811.00    0.39281   0.35096    0.010
 6812.00    0.47073   0.35259    0.010
 6813.00    0.49172   0.35426    0.010
 6814.00    0.46074   0.35435    0.011
 6815.00    0.45542   0.35318    0.011
 6816.00    0.47075   0.35252    0.010
 6817.00    0.42477   0.35354    0.010
 6818.00    0.33539   0.35568    0.010
 6819.00    0.29025   0.35754    0.010
 6820.00    0.27259   0.35818    0.010
 6821.00    0.26655   0.35737    0.010
 6822.00    0.26683   0.35511    0.010
 6823.00    0.29902   0.35207    0.010
 6824.00    0.34626   0.34994    0.010
 6825.00    0.34469   0.35012    0.010
 6826.00    0.32327   0.35199    0.010
 6827.00    0.29392   0.35364    0.010
 6828.00    0.26181   0.35425    0.010
 6829.00    0.26344   0.35459    0.010
 6830.00    0.27495   0.35525    0.010
 6831.00    0.30524   0.35547    0.010
 6832.00    0.34009   0.35422    0.010
 6833.00    0.35339   0.35135    0.010
 6834.00    0.36249   0.34737    0.010
 6835.00    0.36706   0.34294    0.010
 6836.00    0.37095   0.33894    0.010
 6837.00    0.38898   0.33669    0.011
 6838.00    0.40859   0.33737    0.011
 6839.00    0.37184   0.34095    0.011
 6840.00    0.33087   0.34572    0.011
 6841.00    0.28310   0.34957    0.011
 6842.00    0.23505   0.35162    0.011
 6843.00    0.29070   0.35229    0.011
 6844.00    0.34716   0.35227    0.010
 6845.00    0.40714   0.35187    0.010
 6846.00    0.46008   0.35141    0.010
 6847.00    0.39399   0.35103    0.010
 6848.00    0.33012   0.35011    0.010
 6849.00    0.28955   0.34766    0.010
 6850.00    0.25514   0.34391    0.010
 6851.00    0.26658   0.34084    0.010
 6852.00    0.27799   0.34014    0.010
 6853.00    0.28927   0.34129    0.010
 6854.00    0.31719   0.34247    0.010
 6855.00    0.42025   0.34224    0.010
 6856.00    0.50053   0.34066    0.010
 6857.00    0.49644   0.33971    0.010
 6858.00    0.48106   0.34156    0.010
 6859.00    0.43074   0.34556    0.010
 6860.00    0.37080   0.34865    0.010
 6861.00    0.28556   0.34853    0.010
 6862.00    0.23844   0.34557    0.010
 6863.00    0.27750   0.34206    0.010
 6864.00    0.31837   0.34049    0.010
 6865.00    0.36281   0.34139    0.010
 6866.00    0.37956   0.34283    0.010
 6867.00    0.34907   0.34294    0.011
 6868.00    0.32747   0.34219    0.011
 6869.00    0.31916   0.34199    0.011
 6870.00    0.31723   0.34262    0.011
 6871.00    0.32370   0.34369    0.011
 6872.00    0.32478   0.34523    0.011
 6873.00    0.31962   0.34706    0.011
 6874.00    0.28222   0.34815    0.010
 6875.00    0.21191   0.34746    0.010
 6876.00    0.20679   0.34495    0.010
 6877.00    0.26033   0.34179    0.010
 6878.00    0.27525   0.33985    0.010
 6879.00    0.25954   0.34031    0.010
 6880.00    0.28427   0.34241    0.010
 6881.00    0.33722   0.34450    0.010
 6882.00    0.33771   0.34614    0.010
 6883.00    0.30609   0.34797    0.010
 6884.00    0.29555   0.34999    0.010
 6885.00    0.29626   0.35169    0.010
 6886.00    0.31345   0.35272    0.010
 6887.00    0.33828   0.35285    0.010
 6888.00    0.33364   0.35206    0.010
 6889.00    0.31722   0.35084    0.010
 6890.00    0.29683   0.34970    0.010
 6891.00    0.27508   0.34888    0.010
 6892.00    0.25912   0.34868    0.010
 6893.00    0.24482   0.34916    0.011
 6894.00    0.27522   0.34957    0.011
 6895.00    0.31620   0.34930    0.010
 6896.00    0.29404   0.34903    0.010
 6897.00    0.25985   0.34972    0.010
 6898.00    0.31750   0.35088    0.010
 6899.00    0.38873   0.35132    0.010
 6900.00    0.27579   0.35099    0.010
 6901.00    0.14299   0.35098    0.011
 6902.00    0.15551   0.35188    0.011
 6903.00    0.17831   0.35305    0.010
 6904.00    0.22102   0.35360    0.010
 6905.00    0.26445   0.35327    0.010
 6906.00    0.25073   0.35205    0.010
 6907.00    0.23738   0.34993    0.010
 6908.00    0.24359   0.34712    0.010
 6909.00    0.24899   0.34436    0.010
 6910.00    0.24160   0.34273    0.010
 6911.00    0.23735   0.34264    0.010
 6912.00    0.26464   0.34351    0.010
 6913.00    0.28829   0.34488    0.010
 6914.00    0.28577   0.34680    0.010
 6915.00    0.28164   0.34910    0.010
 6916.00    0.26865   0.35100    0.010
 6917.00    0.25519   0.35144    0.010
 6918.00    0.23959   0.34959    0.010
 6919.00    0.22602   0.34564    0.010
 6920.00    0.21978   0.34142    0.010
 6921.00    0.23566   0.33937    0.010
 6922.00    0.31881   0.34046    0.011
 6923.00    0.38083   0.34342    0.011
 6924.00    0.38821   0.34616    0.011
 6925.00    0.36067   0.34754    0.011
 6926.00    0.25551   0.34742    0.011
 6927.00    0.21538   0.34610    0.011
 6928.00    0.30055   0.34436    0.010
 6929.00    0.33442   0.34363    0.010
 6930.00    0.28207   0.34459    0.010
 6931.00    0.26179   0.34625    0.010
 6932.00    0.28875   0.34724    0.011
 6933.00    0.30848   0.34761    0.011
 6934.00    0.31886   0.34825    0.011
 6935.00    0.31710   0.34943    0.011
 6936.00    0.30149   0.35026    0.011
 6937.00    0.26653   0.34950    0.011
 6938.00    0.21210   0.34669    0.011
 6939.00    0.21788   0.34266    0.011
 6940.00    0.27710   0.33928    0.011
 6941.00    0.30384   0.33856    0.011
 6942.00    0.30516   0.34088    0.011
 6943.00    0.29889   0.34442    0.011
 6944.00    0.28740   0.34686    0.011
 6945.00    0.28721   0.34705    0.011
 6946.00    0.29384   0.34520    0.011
 6947.00    0.31349   0.34256    0.011
 6948.00    0.33999   0.34056    0.011
 6949.00    0.33812   0.33992    0.011
 6950.00    0.32329   0.34072    0.011
 6951.00    0.32823   0.34270    0.011
 6952.00    0.34094   0.34498    0.011
 6953.00    0.28264   0.34654    0.011
 6954.00    0.20058   0.34718    0.011
 6955.00    0.29260   0.34747    0.011
 6956.00    0.43351   0.34795    0.011
 6957.00    0.38293   0.34870    0.011
 6958.00    0.28805   0.34938    0.011
 6959.00    0.26721   0.34948    0.011
 6960.00    0.26011   0.34874    0.011
 6961.00    0.26630   0.34780    0.011
 6962.00    0.27440   0.34792    0.011
 6963.00    0.33893   0.34939    0.011
 6964.00    0.40931   0.35074    0.011
 6965.00    0.35850   0.35044    0.011
 6966.00    0.29963   0.34888    0.011
 6967.00    0.28048   0.34783    0.011
 6968.00    0.26260   0.34802    0.011
 6969.00    0.17921   0.34796    0.011
 6970.00    0.10116   0.34580    0.011
 6971.00    0.18641   0.34122    0.011
 6972.00    0.26807   0.33499    0.011
 6973.00    0.29633   0.32855    0.011
 6974.00    0.31768   0.32473    0.011
 6975.00    0.27276   0.32623    0.011
 6976.00    0.23504   0.33251    0.011
 6977.00    0.24737   0.34007    0.011
 6978.00    0.26863   0.34591    0.011
 6979.00    0.33776   0.34919    0.011
 6980.00    0.38103   0.35038    0.011
 6981.00    0.31291   0.35025    0.011
 6982.00    0.27470   0.34926    0.011
 6983.00    0.34269   0.34752    0.011
 6984.00    0.38078   0.34538    0.011
 6985.00    0.32966   0.34397    0.011
 6986.00    0.29584   0.34441    0.011
 6987.00    0.30596   0.34631    0.011
 6988.00    0.31590   0.34798    0.011
 6989.00    0.32543   0.34831    0.011
 6990.00    0.30333   0.34778    0.011
 6991.00    0.22127   0.34749    0.011
 6992.00    0.15909   0.34731    0.011
 6993.00    0.12984   0.34598    0.011
 6994.00    0.12187   0.34293    0.011
 6995.00    0.14481   0.33974    0.010
 6996.00    0.19017   0.33875    0.010
 6997.00    0.26417   0.34017    0.011
 6998.00    0.32236   0.34161    0.011
 6999.00    0.36280   0.34103    0.011
 7000.00    0.36809   0.33904    0.011
 7001.00    0.33851   0.33774    0.011
 7002.00    0.28662   0.33827    0.011
 7003.00    0.21521   0.34018    0.011
 7004.00    0.16295   0.34229    0.011
 7005.00    0.12546   0.34345    0.011
 7006.00    0.13315   0.34337    0.011
 7007.00    0.17145   0.34283    0.011
 7008.00    0.18800   0.34238    0.011
 7009.00    0.19162   0.34085    0.011
 7010.00    0.21184   0.33667    0.011
 7011.00    0.24065   0.33102    0.011
 7012.00    0.25952   0.32817    0.011
 7013.00    0.27392   0.33109    0.011
 7014.00    0.28248   0.33786    0.011
 7015.00    0.28877   0.34390    0.011
 7016.00    0.29866   0.34629    0.011
 7017.00    0.30973   0.34468    0.011
 7018.00    0.29825   0.34031    0.011
 7019.00    0.28057   0.33578    0.011
 7020.00    0.29768   0.33384    0.011
 7021.00    0.32265   0.33514    0.011
 7022.00    0.31111   0.33794    0.011
 7023.00    0.29297   0.34035    0.011
 7024.00    0.24064   0.34197    0.011
 7025.00    0.18357   0.34312    0.011
 7026.00    0.24868   0.34376    0.011
 7027.00    0.32591   0.34362    0.011
 7028.00    0.26049   0.34294    0.011
 7029.00    0.18613   0.34245    0.011
 7030.00    0.24675   0.34259    0.011
 7031.00    0.31062   0.34266    0.011
 7032.00    0.22072   0.34119    0.011
 7033.00    0.13763   0.33822    0.011
 7034.00    0.24135   0.33678    0.011
 7035.00    0.33603   0.33987    0.011
 7036.00    0.30365   0.34645    0.011
 7037.00    0.26766   0.35250    0.011
 7038.00    0.19846   0.35506    0.011
 7039.00    0.13927   0.35395    0.011
 7040.00    0.14762   0.35125    0.011
 7041.00    0.17320   0.34973    0.011
 7042.00    0.28885   0.35079    0.011
 7043.00    0.38203   0.35345    0.011
 7044.00    0.38059   0.35550    0.011
 7045.00    0.37025   0.35519    0.011
 7046.00    0.32900   0.35175    0.011
 7047.00    0.28645   0.34534    0.011
 7048.00    0.24011   0.33739    0.011
 7049.00    0.20580   0.33058    0.011
 7050.00    0.20150   0.32713   -2.000
 7051.00    0.19428   0.32732   -2.000
 7052.00    0.18076   0.32931   -2.000
 7053.00    0.19118   0.33035   -2.000
 7054.00    0.24631   0.32879   -2.000
 7055.00    0.29660   0.32551   -2.000
 7056.00    0.33901   0.32300   -2.000
 7057.00    0.35674   0.32282   -2.000
 7058.00    0.33918   0.32449   -2.000
 7059.00    0.35670   0.32652   -2.000
 7060.00    0.41834   0.32730   -2.000
 7061.00    0.41959   0.32567   -2.000
 7062.00    0.35387   0.32195   -2.000
 7063.00    0.34666   0.31830   -2.000
 7064.00    0.39669   0.31744   -2.000
 7065.00    0.37926   0.32034   -2.000
 7066.00    0.30365   0.32526   -2.000
 7067.00    0.29669   0.32941   -2.000
 7068.00    0.34190   0.33150   -2.000
 7069.00    0.30207   0.33202   -2.000
 7070.00    0.20546   0.33182   -2.000
 7071.00    0.21713   0.33146   -2.000
 7072.00    0.29213   0.33143   -2.000
 7073.00    0.34699   0.33201   -2.000
 7074.00    0.39159   0.33302   -2.000
 7075.00    0.35777   0.33396   -2.000
 7076.00    0.28933   0.33390   -2.000
 7077.00    0.27092   0.33154   -2.000
 7078.00    0.27148   0.32624   -2.000
 7079.00    0.28355   0.31943   -2.000
 7080.00    0.29933   0.31403   -2.000
 7081.00    0.28617   0.31179   -2.000
 7082.00    0.26522   0.31163   -2.000
 7083.00    0.24622   0.31132   -2.000
 7084.00    0.22766   0.31010   -2.000
 7085.00    0.28252   0.30874   -2.000
 7086.00    0.35029   0.30809   -2.000
 7087.00    0.31119   0.30828   -2.000
 7088.00    0.25777   0.30877   -2.000
 7089.00    0.21526   0.30912   -2.000
 7090.00    0.17378   0.30936   -2.000
 7091.00    0.20561   0.30973   -2.000
 7092.00    0.24174   0.31059   -2.000
 7093.00    0.22832   0.31222   -2.000
 7094.00    0.21404   0.31435   -2.000
 7095.00    0.24820   0.31601   -2.000
 7096.00    0.27932   0.31623   -2.000
 7097.00    0.23474   0.31521   -2.000
 7098.00    0.19363   0.31431   -2.000
 7099.00    0.19844   0.31468   -2.000
 7100.00    0.20614   0.31591   -2.000
 7101.00    0.23940   0.31651   -2.000
 7102.00    0.26610   0.31583   -2.000
 7103.00    0.24987   0.31470   -2.000
 7104.00    0.22949   0.31373   -2.000
 7105.00    0.18792   0.31243   -2.000
 7106.00    0.16428   0.31061   -2.000
 7107.00    0.21445   0.30947   -2.000
 7108.00    0.25854   0.31019   -2.000
 7109.00    0.28194   0.31234   -2.000
 7110.00    0.31748   0.31454   -2.000
 7111.00    0.38794   0.31598   -2.000
 7112.00    0.39601   0.31654   -2.000
 7113.00    0.25101   0.31642   -2.000
 7114.00    0.15899   0.31584   -2.000
 7115.00    0.17910   0.31495   -2.000
 7116.00    0.20096   0.31384   -2.000
 7117.00    0.22604   0.31285   -2.000
 7118.00    0.24853   0.31243   -2.000
 7119.00    0.26688   0.31228   -2.000
 7120.00    0.35138   0.31121   -2.000
 7121.00    0.52916   0.30889   -2.000
 7122.00    0.60040   0.30655   -2.000
 7123.00    0.53952   0.30511   -2.000
 7124.00    0.03434   0.30373   -2.000
 7125.00   -0.95660   0.30145   -2.000
 7126.00   -0.91398   0.29923   -2.000
 7127.00    0.12538   0.29913   -2.000
 7128.00    0.55031   0.30171   -2.000
 7129.00    0.45273   0.30551   -2.000
 7130.00    0.41646   0.30876   -2.000
 7131.00    0.42610   0.31073   -2.000
 7132.00    0.38477   0.31151   -2.000
 7133.00    0.30989   0.31116   -2.000
 7134.00    0.32487   0.30999   -2.000
 7135.00    0.39159   0.30914   -2.000
 7136.00    0.38054   0.30956   -2.000
 7137.00    0.33045   0.31067   -2.000
 7138.00    0.33627   0.31129   -2.000
 7139.00    0.36635   0.31106   -2.000
 7140.00    0.30102   0.31026   -2.000
 7141.00    0.20014   0.30870   -2.000
 7142.00    0.16003   0.30595   -2.000
 7143.00    0.13912   0.30268   -2.000
 7144.00    0.18341   0.30090   -2.000
 7145.00    0.24488   0.30197   -2.000
 7146.00    0.20195   0.30523   -2.000
 7147.00    0.13652   0.30915   -2.000
 7148.00    0.16748   0.31239   -2.000
 7149.00    0.21491   0.31396   -2.000
 7150.00    0.20677   0.31393   -2.000
 7151.00    0.19145   0.31381   -2.000
 7152.00    0.16996   0.31458   -2.000
 7153.00    0.14791   0.31524   -2.000
 7154.00    0.20705   0.31444   -2.000
 7155.00    0.27062   0.31267   -2.000
 7156.00    0.22261   0.31142   -2.000
 7157.00    0.17375   0.31076   -2.000
 7158.00    0.26165   0.30900   -2.000
 7159.00    0.34210   0.30525   -2.000
 7160.00    0.25349   0.30159   -2.000
 7161.00    0.18821   0.30129   -2.000
 7162.00    0.41674   0.30496   -2.000
 7163.00    0.59391   0.30991   -2.000
 7164.00    0.33283   0.31324   -2.000
 7165.00    0.14663   0.31450   -2.000
 7166.00    0.43508   0.31519   -2.000
 7167.00    0.64127   0.31636   -2.000
 7168.00    0.43901   0.31743   -2.000
 7169.00    0.29797   0.31719   -2.000
 7170.00    0.40343   0.31537   -2.000
 7171.00    0.45064   0.31317   -2.000
 7172.00    0.30325   0.31217   -2.000
 7173.00    0.17274   0.31235   -2.000
 7174.00    0.08983   0.31163   -2.000
 7175.00    0.06137   0.30862   -2.000
 7176.00    0.16422   0.30510   -2.000
 7177.00    0.27049   0.30442   -2.000
 7178.00    0.38387   0.30751   -2.000
 7179.00    0.44071   0.31167   -2.000
 7180.00    0.39516   0.31330   -2.000
 7181.00    0.30815   0.31101   -2.000
 7182.00    0.15549   0.30613   -2.000
 7183.00    0.12500   0.30151   -2.000
 7184.00    0.26425   0.29961   -2.000
 7185.00    0.25987   0.30086   -2.000
 7186.00    0.07986   0.30352   -2.000
 7187.00    0.03479   0.30542   -2.000
 7188.00    0.13519   0.30595   -2.000
 7189.00    0.18094   0.30629   -2.000
 7190.00    0.17474   0.30723   -2.000
 7191.00    0.20823   0.30803   -2.000
 7192.00    0.27499   0.30798   -2.000
 7193.00    0.22740   0.30780   -2.000
 7194.00    0.09541   0.30830   -2.000
 7195.00    0.09797   0.30894   -2.000
 7196.00    0.18775   0.30885   -2.000
 7197.00    0.27205   0.30856   -2.000
 7198.00    0.35324   0.30936   -2.000
 7199.00    0.33275   0.31105   -2.000
 7200.00    0.26202   0.31131   -2.000
 7201.00    0.26177   0.30812   -2.000
 7202.00    0.29159   0.30254   -2.000
 7203.00    0.41240   0.29835   -2.000
 7204.00    0.56649   0.29856   -2.000
 7205.00    0.53396   0.30282   -2.000
 7206.00    0.44362   0.30806   -2.000
 7207.00    0.24973   0.31117   -2.000
 7208.00    0.02912   0.31114   -2.000
 7209.00    0.10545   0.30931   -2.000
 7210.00    0.24424   0.30788   -2.000
 7211.00    0.22932   0.30819   -2.000
 7212.00    0.18886   0.31016   -2.000
 7213.00    0.22366   0.31251   -2.000
 7214.00    0.26785   0.31368   -2.000
 7215.00    0.24874   0.31315   -2.000
 7216.00    0.22414   0.31160   -2.000
 7217.00    0.20053   0.31004   -2.000
 7218.00    0.17696   0.30928   -2.000
